time (s)	coil I (A)	last det (V)	int current (uC)
1660.308412	1.140333	0.223357	612.358887
1660.309484	1.534080	0.223357	2256.892090
1660.310418	1.504365	0.223357	3661.969238
1660.311284	1.465338	0.223357	4930.952148
1660.312375	1.420444	0.223357	6480.657227
1660.313371	1.379835	0.223357	7854.973145
1660.314270	1.345690	0.223357	9064.748047
1660.315254	1.310046	0.223357	10353.833984
1660.316294	1.273718	0.223357	11678.500977
1660.317212	0.533379	0.223357	12168.142578
1660.318071	0.092347	0.223357	12247.468750
1660.319167	0.090015	0.223357	12346.125000
1660.320142	0.089916	0.223357	12433.792969
1660.321005	0.090018	0.223357	12511.478516
1660.322094	0.090121	0.223357	12609.620117
1660.323143	0.089982	0.223357	12704.010742
1660.324025	0.090004	0.223357	12783.393555
1660.324932	0.090092	0.223357	12865.106445
1660.326011	0.090033	0.223357	12962.251953
1660.326956	0.089908	0.223357	13047.215820
1661.275065	1.049652	0.241923	440.853882
1661.276058	1.529132	0.241923	1959.281982
1661.276981	1.513187	0.241923	3355.953857
1661.277902	1.473215	0.241923	4712.785156
1661.278779	1.435093	0.241923	5971.361328
1661.279824	1.393275	0.241923	7427.333984
1661.280716	1.358016	0.241923	8638.684570
1661.281598	1.325163	0.241923	9807.478516
1661.282576	1.291069	0.241923	11070.144531
1661.283541	1.067944	0.241923	12100.710937
1661.284431	0.145756	0.241923	12230.433594
1661.285382	0.089886	0.241923	12315.916016
1661.286411	0.089824	0.241923	12408.344727
1661.287296	0.089923	0.241923	12487.926758
1661.288154	0.089883	0.241923	12565.045898
1661.289181	0.090022	0.241923	12657.498047
1661.290147	0.089927	0.241923	12744.367187
1661.291023	0.089901	0.241923	12823.120117
1661.291931	0.090011	0.241923	12904.849609
1661.293006	0.089952	0.241923	13001.548828
1662.366320	1.110026	0.227707	527.262207
1662.367205	1.531780	0.227707	1882.887329
1662.368157	1.514388	0.227707	3324.584961
1662.369223	1.467792	0.227707	4889.250977
1662.370164	1.427974	0.227707	6232.974121
1662.371036	1.391675	0.227707	7446.514648
1662.372102	1.351088	0.227707	8886.774414
1662.373108	1.313635	0.227707	10208.291016
1662.374008	1.282196	0.227707	11362.267578
1662.374995	0.767842	0.227707	12120.126953
1662.376060	0.093472	0.227707	12219.673828
1662.376970	0.089872	0.227707	12301.457031
1662.377830	0.089930	0.227707	12378.796875
1662.378918	0.090026	0.227707	12476.745117
1662.379900	0.089941	0.227707	12565.067383
1662.380786	0.089985	0.227707	12644.793945
1662.381774	0.090033	0.227707	12733.746094
1662.382813	0.089956	0.227707	12827.209961
1662.383702	0.089908	0.227707	12907.138672
1662.384576	0.089872	0.227707	12985.686523
1663.308486	1.173270	0.220980	631.219421
1663.309530	1.534541	0.220980	2233.280273
1663.310426	1.507229	0.220980	3583.757568
1663.311375	1.465609	0.220980	4974.620605
1663.312439	1.420726	0.220980	6486.273437
1663.313377	1.382783	0.220980	7783.324219
1663.314250	1.348422	0.220980	8960.496094
1663.315313	1.310043	0.220980	10353.071289
1663.316320	1.274619	0.220980	11636.612305
1663.317221	0.611884	0.220980	12187.919922
1663.318194	0.093347	0.220980	12278.747070
1663.319257	0.089912	0.220980	12374.323242
1663.320178	0.089982	0.220980	12457.196289
1663.321040	0.089982	0.220980	12534.760742
1663.322128	0.089956	0.220980	12632.632812
1663.323129	0.089916	0.220980	12722.638672
1663.324018	0.089872	0.220980	12802.535156
1663.324892	0.089839	0.220980	12881.054687
1663.325897	0.089996	0.220980	12971.500977
1663.326805	0.089908	0.220980	13053.137695
1664.399131	1.138601	0.219695	578.409363
1664.400043	1.533343	0.219695	1976.818604
1664.400909	1.513986	0.219695	3287.930176
1664.401976	1.468473	0.219695	4854.791016
1664.402985	1.425908	0.219695	6293.532227
1664.403866	1.390001	0.219695	7518.123047
1664.404867	1.351670	0.219695	8871.144531
1664.405928	1.312881	0.219695	10264.111328
1664.406815	1.280676	0.219695	11400.071289
1664.407697	0.806715	0.219695	12111.593750
1664.408811	0.093820	0.219695	12216.108398
1664.409780	0.089897	0.219695	12303.218750
1664.410644	0.089930	0.219695	12380.918945
1664.411655	0.089993	0.219695	12471.901367
1664.412696	0.089912	0.219695	12565.500000
1664.413584	0.089901	0.219695	12645.332031
1664.414500	0.089912	0.219695	12727.691406
1664.415565	0.089963	0.219695	12823.501953
1664.416514	0.089854	0.219695	12908.772461
1664.417389	0.089982	0.219695	12987.506836
1665.345926	1.118496	0.245347	558.129517
1665.346806	1.532102	0.245347	1906.379395
1665.347708	1.514356	0.245347	3272.328125
1665.348800	1.467689	0.245347	4875.044922
1665.349759	1.427366	0.245347	6243.888672
1665.350632	1.391470	0.245347	7458.641602
1665.351680	1.350959	0.245347	8874.447266
1665.352703	1.313229	0.245347	10217.879883
1665.353604	1.281526	0.245347	11372.535156
1665.354560	0.791876	0.245347	12129.568359
1665.355612	0.094021	0.245347	12228.478516
1665.356552	0.089821	0.245347	12312.910156
1665.357412	0.089854	0.245347	12390.184570
1665.358473	0.090022	0.245347	12485.698242
1665.359468	0.089890	0.245347	12575.138672
1665.360357	0.089788	0.245347	12654.959961
1665.361338	0.089938	0.245347	12743.188477
1665.362383	0.089872	0.245347	12837.104492
1665.363288	0.089908	0.245347	12918.471680
1665.364148	0.089963	0.245347	12995.839844
1666.430286	1.069827	0.244727	472.863373
1666.431154	1.528909	0.244727	1799.956055
1666.432167	1.514011	0.244727	3333.649414
1666.433104	1.472267	0.244727	4713.163574
1666.433991	1.434935	0.244727	5985.951172
1666.434965	1.395440	0.244727	7345.109375
1666.435988	1.355035	0.244727	8731.310547
1666.436887	1.321535	0.244727	9919.370117
1666.437753	1.290205	0.244727	11036.687500
1666.438847	0.932443	0.244727	12056.779297
1666.439775	0.109896	0.244727	12158.762695
1666.440650	0.089817	0.244727	12237.352539
1666.441629	0.089934	0.244727	12325.398437
1666.442641	0.089897	0.244727	12416.375000
1666.443521	0.089912	0.244727	12495.498047
1666.444379	0.089912	0.244727	12572.642578
1666.445452	0.089963	0.244727	12669.172852
1666.446384	0.089879	0.244727	12752.940430
1666.447240	0.089963	0.244727	12829.949219
1666.448266	0.089967	0.244727	12922.255859
1667.386437	1.070197	0.239913	460.184509
1667.387313	1.528407	0.239913	1799.069092
1667.388304	1.514330	0.239913	3299.770020
1667.389317	1.469963	0.239913	4788.842773
1667.390211	1.432222	0.239913	6069.249023
1667.391075	1.395494	0.239913	7274.956055
1667.392172	1.354190	0.239913	8760.501953
1667.393096	1.319659	0.239913	9979.867187
1667.393966	1.287876	0.239913	11100.319336
1667.395072	0.860903	0.239913	12052.478516
1667.396061	0.097610	0.239913	12149.014648
1667.396960	0.089758	0.239913	12229.707031
1667.397957	0.089883	0.239913	12319.320312
1667.398991	0.089832	0.239913	12412.206055
1667.399877	0.089960	0.239913	12491.910156
1667.400747	0.089919	0.239913	12570.139648
1667.401839	0.089905	0.239913	12668.315430
1667.402799	0.089905	0.239913	12754.624023
1667.403657	0.089861	0.239913	12831.724609
1667.404720	0.089930	0.239913	12927.320312
1668.465416	1.119221	0.236102	559.610596
1668.466320	1.532875	0.236102	1945.329346
1668.467186	1.514451	0.236102	3256.843750
1668.468280	1.467982	0.236102	4862.816406
1668.469278	1.425564	0.236102	6285.529297
1668.470182	1.388998	0.236102	7541.183594
1668.471175	1.350758	0.236102	8882.486328
1668.472236	1.312291	0.236102	10274.827148
1668.473133	1.280039	0.236102	11423.022461
1668.474005	0.803705	0.236102	12123.853516
1668.475097	0.094314	0.236102	12226.844727
1668.476052	0.089883	0.236102	12312.682617
1668.476918	0.090007	0.236102	12390.628906
1668.477955	0.090007	0.236102	12483.966797
1668.478988	0.089912	0.236102	12576.845703
1668.479871	0.089930	0.236102	12656.253906
1668.480800	0.089919	0.236102	12739.789062
1668.481856	0.090033	0.236102	12834.864258
1668.482807	0.090011	0.236102	12920.464844
1668.483667	0.089890	0.236102	12997.770508
1669.420096	1.055189	0.255458	448.455383
1669.421117	1.530037	0.255458	2010.622803
1669.422170	1.506903	0.255458	3597.391602
1669.423057	1.467070	0.255458	4898.682617
1669.423959	1.428175	0.255458	6186.896484
1669.425035	1.385233	0.255458	7677.407227
1669.425993	1.348345	0.255458	8969.121094
1669.426856	1.316352	0.255458	10105.132812
1669.427904	1.279786	0.255458	11446.348633
1669.428941	0.636116	0.255458	12106.000977
1669.429819	0.093325	0.255458	12187.940430
1669.430769	0.089905	0.255458	12273.349609
1669.431818	0.089963	0.255458	12367.720703
1669.432756	0.089883	0.255458	12452.031250
1669.433623	0.089912	0.255458	12529.985352
1669.434658	0.089989	0.255458	12623.124023
1669.435671	0.089912	0.255458	12714.205078
1669.436565	0.089839	0.255458	12794.521484
1669.437525	0.090029	0.255458	12880.949219
1669.438579	0.089967	0.255458	12975.774414
1670.498811	1.113040	0.232312	538.711182
1670.499692	1.531267	0.232312	1887.757446
1670.500554	1.517270	0.232312	3195.644531
1670.501613	1.471399	0.232312	4753.855957
1670.502570	1.430925	0.232312	6123.251465
1670.503451	1.394645	0.232312	7351.933594
1670.504372	1.358295	0.232312	8602.922852
1670.505443	1.319539	0.232312	10016.148437
1670.506328	1.287678	0.232312	11155.744141
1670.507191	1.097600	0.232312	12102.972656
1670.508241	0.126152	0.232312	12235.432617
1670.509195	0.089773	0.232312	12321.076172
1670.510058	0.089930	0.232312	12398.686523
1670.511106	0.089982	0.232312	12492.987305
1670.512141	0.089916	0.232312	12586.049805
1670.513015	0.089912	0.232312	12664.632812
1670.513945	0.089963	0.232312	12748.298828
1670.515003	0.089956	0.232312	12843.472656
1670.515943	0.089846	0.232312	12927.927734
1670.516812	0.089883	0.232312	13006.036133
1671.461024	1.139033	0.243462	582.045959
1671.462056	1.533867	0.243462	2164.997070
1671.462955	1.507969	0.243462	3520.661133
1671.463909	1.466470	0.243462	4919.673340
1671.464976	1.421158	0.243462	6436.049316
1671.465927	1.382963	0.243462	7751.247070
1671.466797	1.348579	0.243462	8924.510742
1671.467859	1.310098	0.243462	10315.833984
1671.468865	1.275004	0.243462	11598.487305
1671.469769	0.632875	0.243462	12170.606445
1671.470737	0.093669	0.243462	12261.278320
1671.471772	0.089916	0.243462	12354.340820
1671.472682	0.089864	0.243462	12436.117187
1671.473542	0.089894	0.243462	12513.425781
1671.474620	0.090044	0.243462	12610.493164
1671.475608	0.089850	0.243462	12699.264648
1671.476484	0.089956	0.243462	12778.066406
1671.477481	0.090048	0.243462	12867.843750
1671.478512	0.089938	0.243462	12960.569336
1671.479405	0.089934	0.243462	13040.880859
1672.531861	1.131456	0.260123	573.648376
1672.532743	1.532128	0.260123	1924.984863
1672.533629	1.514073	0.260123	3266.454102
1672.534718	1.467755	0.260123	4864.839355
1672.535668	1.427798	0.260123	6221.247070
1672.536537	1.392001	0.260123	7430.895508
1672.537590	1.351534	0.260123	8854.061523
1672.538614	1.313716	0.260123	10199.306641
1672.539501	1.282269	0.260123	11336.679687
1672.540380	0.925342	0.260123	12150.054687
1672.541312	0.114060	0.260123	12256.358398
1672.542297	0.089799	0.260123	12344.809570
1672.543209	0.089872	0.260123	12426.772461
1672.544087	0.089879	0.260123	12505.686523
1672.545119	0.089916	0.260123	12598.479492
1672.546030	0.089901	0.260123	12680.379883
1672.546906	0.089974	0.260123	12759.197266
1672.547764	0.089879	0.260123	12836.313477
1672.548811	0.089919	0.260123	12930.458984
1672.549699	0.089978	0.260123	13010.359375
1673.495277	1.108282	0.264317	524.217590
1673.496163	1.530670	0.264317	1880.391357
1673.497032	1.516351	0.264317	3198.100586
1673.498112	1.470648	0.264317	4786.400391
1673.499045	1.430526	0.264317	6121.081055
1673.499926	1.394583	0.264317	7349.708008
1673.500905	1.357343	0.264317	8678.546875
1673.501927	1.318718	0.264317	10026.277344
1673.502807	1.287111	0.264317	11158.934570
1673.503763	0.961165	0.264317	12077.807617
1673.504843	0.106135	0.264317	12192.433594
1673.505753	0.089843	0.264317	12274.190430
1673.506621	0.089916	0.264317	12352.237305
1673.507672	0.089956	0.264317	12446.781250
1673.508685	0.089905	0.264317	12537.854492
1673.509582	0.089905	0.264317	12618.499023
1673.510548	0.090004	0.264317	12705.442383
1673.511597	0.089952	0.264317	12799.802734
1673.512519	0.089952	0.264317	12882.739258
1673.513380	0.089828	0.264317	12960.081055
1674.567443	1.126637	0.239188	565.571716
1674.568473	1.533904	0.239188	2145.492432
1674.569371	1.508683	0.239188	3500.289551
1674.570332	1.466587	0.239188	4909.679687
1674.571405	1.421415	0.239188	6434.857910
1674.572340	1.383325	0.239188	7728.267090
1674.573206	1.349205	0.239188	8896.678711
1674.574282	1.310435	0.239188	10306.706055
1674.575274	1.275549	0.239188	11572.050781
1674.576173	0.668141	0.239188	12172.708984
1674.577173	0.094171	0.239188	12266.879883
1674.578222	0.089872	0.239188	12361.155273
1674.579119	0.089890	0.239188	12441.787109
1674.579976	0.089930	0.239188	12518.857422
1674.581073	0.089945	0.239188	12617.527344
1674.582031	0.089821	0.239188	12703.575195
1674.582906	0.089868	0.239188	12782.209961
1674.583916	0.089982	0.239188	12873.091797
1674.584961	0.089875	0.239188	12967.011719
1674.585837	0.089945	0.239188	13045.803711
1675.529661	1.063293	0.260550	450.836426
1675.530725	1.531882	0.260550	2080.759277
1675.531752	1.504772	0.260550	3626.159668
1675.532653	1.465232	0.260550	4946.333496
1675.533612	1.425238	0.260550	6313.136719
1675.534665	1.382498	0.260550	7768.906738
1675.535595	1.346148	0.260550	9020.824219
1675.536525	1.312284	0.260550	10241.248047
1675.537396	1.280984	0.260550	11356.985352
1675.538431	0.720773	0.260550	12102.985352
1675.539313	0.096354	0.260550	12187.969727
1675.540180	0.089729	0.260550	12265.764648
1675.541182	0.089897	0.260550	12355.841797
1675.542109	0.089824	0.260550	12439.108398
1675.543020	0.089861	0.260550	12520.971680
1675.543896	0.089875	0.260550	12599.702148
1675.544915	0.089872	0.260550	12691.281250
1675.545815	0.089890	0.260550	12772.182617
1675.546680	0.089919	0.260550	12849.962891
1675.547706	0.089949	0.260550	12942.250000
1676.601230	1.119478	0.254935	566.455627
1676.602145	1.532322	0.254935	1968.530029
1676.603009	1.513685	0.254935	3276.354004
1676.604074	1.467869	0.254935	4839.634277
1676.605077	1.425205	0.254935	6269.114746
1676.605978	1.388980	0.254935	7520.585449
1676.606959	1.351282	0.254935	8846.193359
1676.608016	1.312621	0.254935	10233.633789
1676.608929	1.279991	0.254935	11402.265625
1676.609803	0.811337	0.254935	12111.374023
1676.610908	0.094058	0.254935	12215.307617
1676.611874	0.089857	0.254935	12302.109375
1676.612740	0.089861	0.254935	12379.928711
1676.613802	0.089916	0.254935	12475.418945
1676.614830	0.089919	0.254935	12567.856445
1676.615724	0.089872	0.254935	12648.202148
1676.616641	0.089949	0.254935	12730.685547
1676.617684	0.089879	0.254935	12824.429687
1676.618628	0.089872	0.254935	12909.268555
1676.619492	0.089967	0.254935	12987.000000
1677.569086	1.057247	0.265392	449.330139
1677.570051	1.527008	0.265392	1922.892822
1677.571104	1.507851	0.265392	3510.660400
1677.572037	1.467103	0.265392	4879.467773
1677.572906	1.429358	0.265392	6121.580078
1677.573983	1.386361	0.265392	7614.690918
1677.574982	1.347587	0.265392	8960.929687
1677.575886	1.314456	0.265392	10149.197266
1677.576898	1.279424	0.265392	11443.974609
1677.577951	0.619391	0.265392	12096.193359
1677.578848	0.092527	0.265392	12179.190430
1677.579708	0.089817	0.265392	12256.432617
1677.580818	0.089810	0.265392	12356.121094
1677.581773	0.089810	0.265392	12441.889648
1677.582632	0.089795	0.265392	12519.023437
1677.583686	0.089857	0.265392	12613.732422
1677.584727	0.089839	0.265392	12707.254883
1677.585600	0.089854	0.265392	12785.697266
1677.586513	0.089923	0.265392	12867.796875
1677.587575	0.089850	0.265392	12963.217773
1678.636869	1.179598	0.260635	666.473083
1678.637920	1.533417	0.260635	2278.093994
1678.638805	1.505526	0.260635	3610.484619
1678.639702	1.465166	0.260635	4924.738770
1678.640784	1.420745	0.260635	6461.984375
1678.641746	1.382054	0.260635	7791.520508
1678.642611	1.348147	0.260635	8957.667969
1678.643643	1.310248	0.260635	10309.843750
1678.644685	1.273759	0.260635	11637.099609
1678.645585	0.608595	0.260635	12184.834961
1678.646541	0.093398	0.260635	12274.124023
1678.647601	0.089883	0.260635	12369.399414
1678.648515	0.089875	0.260635	12451.545898
1678.649437	0.089883	0.260635	12534.417969
1678.650311	0.089824	0.260635	12612.924805
1678.651342	0.089832	0.260635	12705.541016
1678.652236	0.089923	0.260635	12785.932617
1678.653112	0.089901	0.260635	12864.685547
1678.654057	0.089886	0.260635	12949.627930
1678.655045	0.089839	0.260635	13038.388672
1679.602242	1.058925	0.282714	454.278625
1679.603245	1.527081	0.282714	1985.941162
1679.604298	1.506592	0.282714	3572.382324
1679.605212	1.466144	0.282714	4912.437500
1679.606075	1.428300	0.282714	6145.060059
1679.607177	1.385039	0.282714	7671.373047
1679.608173	1.346345	0.282714	9012.333008
1679.609054	1.313745	0.282714	10169.742187
1679.609933	1.282848	0.282714	11297.365234
1679.610936	0.797677	0.282714	12097.435547
1679.611852	0.098379	0.282714	12187.550781
1679.612778	0.089817	0.282714	12270.721680
1679.613643	0.089941	0.282714	12348.521484
1679.614679	0.089868	0.282714	12441.625000
1679.615575	0.089868	0.282714	12522.146484
1679.616452	0.089883	0.282714	12600.973633
1679.617437	0.089883	0.282714	12689.507812
1679.618394	0.089894	0.282714	12775.536133
1679.619271	0.089949	0.282714	12854.420898
1679.620216	0.089908	0.282714	12939.384766
1680.672574	1.066406	0.258254	455.355469
1680.673644	1.532010	0.258254	2094.606689
1680.674641	1.505552	0.258254	3595.641846
1680.675536	1.466287	0.258254	4907.968262
1680.676535	1.424996	0.258254	6331.539551
1680.677580	1.382461	0.258254	7776.211426
1680.678483	1.347382	0.258254	8992.896484
1680.679347	1.314111	0.258254	10128.289062
1680.680442	1.277164	0.258254	11526.784180
1680.681416	0.633999	0.258254	12144.298828
1680.682285	0.093885	0.258254	12225.885742
1680.683311	0.089949	0.258254	12318.172852
1680.684358	0.089930	0.258254	12412.330078
1680.685233	0.089963	0.258254	12491.047852
1680.686119	0.089952	0.258254	12570.746094
1680.687225	0.089890	0.258254	12670.165039
1680.688185	0.089861	0.258254	12756.431641
1680.689052	0.089857	0.258254	12834.337891
1680.690070	0.089967	0.258254	12925.924805
1680.691111	0.089897	0.258254	13019.507812
1681.637264	1.124399	0.267350	574.568054
1681.638191	1.532724	0.267350	1995.403564
1681.639060	1.513176	0.267350	3310.353760
1681.640123	1.467334	0.267350	4870.129883
1681.641131	1.424564	0.267350	6306.090820
1681.642033	1.387936	0.267350	7558.008789
1681.642998	1.351007	0.267350	8861.730469
1681.644062	1.311826	0.267350	10257.513672
1681.644988	1.279091	0.267350	11441.951172
1681.645862	0.804012	0.267350	12144.658203
1681.646962	0.093845	0.267350	12247.887695
1681.647937	0.089817	0.267350	12335.458984
1681.648819	0.089949	0.267350	12414.793945
1681.649815	0.090000	0.267350	12504.433594
1681.650865	0.089916	0.267350	12598.844727
1681.651760	0.089875	0.267350	12679.283203
1681.652621	0.089864	0.267350	12756.656250
1681.653718	0.090015	0.267350	12855.402344
1681.654690	0.089949	0.267350	12942.832031
1681.655544	0.089883	0.267350	13019.591797
1682.707125	1.140476	0.269715	623.840393
1682.708081	1.533765	0.269715	2090.119385
1682.708964	1.510371	0.269715	3423.777100
1682.709926	1.468894	0.269715	4836.853027
1682.710958	1.424872	0.269715	6307.320801
1682.711843	1.388782	0.269715	7536.392578
1682.712707	1.354570	0.269715	8706.741211
1682.713778	1.315785	0.269715	10115.947266
1682.714721	1.282258	0.269715	11325.117187
1682.715597	0.942653	0.269715	12150.880859
1682.716541	0.116953	0.269715	12261.284180
1682.717586	0.089769	0.269715	12355.092773
1682.718469	0.089901	0.269715	12434.475586
1682.719401	0.089875	0.269715	12518.239258
1682.720473	0.089875	0.269715	12614.585937
1682.721419	0.089784	0.269715	12699.521484
1682.722288	0.089905	0.269715	12777.648437
1682.723350	0.089941	0.269715	12873.166016
1682.724357	0.089832	0.269715	12963.625977
1682.725252	0.089875	0.269715	13044.064453
1683.673370	1.134507	0.289063	570.656921
1683.674375	1.533625	0.289063	2111.950439
1683.675265	1.509562	0.289063	3455.460449
1683.676261	1.466144	0.289063	4915.739746
1683.677310	1.422176	0.289063	6407.603027
1683.678210	1.385024	0.289063	7654.125000
1683.679070	1.350212	0.289063	8815.307617
1683.680182	1.311182	0.289063	10273.341797
1683.681159	1.276985	0.289063	11520.956055
1683.682025	0.757917	0.289063	12177.312500
1683.683078	0.093549	0.289063	12275.819336
1683.684133	0.089875	0.289063	12370.637695
1683.685008	0.089839	0.289063	12449.247070
1683.685939	0.089901	0.289063	12532.945312
1683.686996	0.089912	0.289063	12627.982422
1683.687946	0.089832	0.289063	12713.322266
1683.688813	0.089835	0.289063	12791.208984
1683.689824	0.089890	0.289063	12882.087891
1683.690852	0.089854	0.289063	12974.457031
1683.691746	0.089777	0.289063	13054.717773
1684.744062	1.126285	0.267161	549.627258
1684.744944	1.531069	0.267161	1900.030273
1684.745895	1.512887	0.267161	3338.785645
1684.746964	1.465924	0.267161	4905.858398
1684.747910	1.426161	0.267161	6255.006836
1684.748784	1.389855	0.267161	7469.739746
1684.749857	1.348876	0.267161	8917.083984
1684.750866	1.311844	0.267161	10240.735352
1684.751761	1.280131	0.267161	11386.452148
1684.752692	0.819185	0.267161	12149.113281
1684.753551	0.102759	0.267161	12237.382812
1684.754551	0.089839	0.267161	12327.221680
1684.755483	0.089839	0.267161	12410.951172
1684.756343	0.089912	0.267161	12488.275391
1684.757367	0.089854	0.267161	12580.285156
1684.758251	0.089872	0.267161	12659.731445
1684.759117	0.089886	0.267161	12737.573242
1684.760041	0.089864	0.267161	12820.608398
1684.761036	0.089839	0.267161	12909.998047
1684.761942	0.089857	0.267161	12991.408203
1685.705911	1.048125	0.287822	441.260651
1685.706899	1.527034	0.287822	1949.969849
1685.707840	1.511587	0.287822	3372.373047
1685.708766	1.471139	0.287822	4734.647461
1685.709634	1.433416	0.287822	5978.852051
1685.710680	1.391949	0.287822	7434.831055
1685.711565	1.357167	0.287822	8635.923828
1685.712426	1.324288	0.287822	9776.135742
1685.713485	1.287389	0.287822	11139.480469
1685.714425	1.023395	0.287822	12101.471680
1685.715307	0.133513	0.287822	12219.230469
1685.716234	0.089897	0.287822	12302.565430
1685.717290	0.089843	0.287822	12397.439453
1685.718182	0.089784	0.287822	12477.526367
1685.719043	0.089861	0.287822	12554.896484
1685.720091	0.089868	0.287822	12649.078125
1685.721055	0.089864	0.287822	12735.707031
1685.721939	0.089941	0.287822	12815.214844
1685.722865	0.089941	0.287822	12898.500977
1685.723903	0.089879	0.287822	12991.795898
1686.780059	1.136287	0.274013	573.824768
1686.781003	1.532930	0.274013	2020.910400
1686.781869	1.512184	0.274013	3330.461426
1686.782936	1.466111	0.274013	4894.801758
1686.783954	1.423407	0.274013	6343.830078
1686.784842	1.387156	0.274013	7575.624023
1686.785825	1.349949	0.274013	8902.624023
1686.786878	1.310848	0.274013	10282.947266
1686.787796	1.278369	0.274013	11456.490234
1686.788665	0.799761	0.274013	12151.482422
1686.789745	0.094189	0.274013	12253.207031
1686.790735	0.089832	0.274013	12342.140625
1686.791608	0.089908	0.274013	12420.630859
1686.792594	0.089934	0.274013	12509.305664
1686.793652	0.089854	0.274013	12604.371094
1686.794554	0.089897	0.274013	12685.458984
1686.795417	0.089883	0.274013	12763.028320
1686.796520	0.089960	0.274013	12862.253906
1686.797492	0.089857	0.274013	12949.594727
1686.798363	0.089843	0.274013	13027.847656
1687.743130	1.134844	0.285965	575.365784
1687.744089	1.533080	0.285965	2045.589355
1687.744952	1.512129	0.285965	3350.556641
1687.746006	1.466111	0.285965	4895.837402
1687.747074	1.421840	0.285965	6414.362305
1687.747951	1.385413	0.285965	7629.369141
1687.748882	1.349491	0.285965	8885.745117
1687.749942	1.310457	0.285965	10274.829102
1687.750888	1.277501	0.285965	11483.345703
1687.751767	0.773881	0.285965	12163.586914
1687.752809	0.093867	0.285965	12261.396484
1687.753826	0.089941	0.285965	12352.867187
1687.754722	0.089854	0.285965	12433.375977
1687.755663	0.089945	0.285965	12518.014648
1687.756714	0.089963	0.285965	12612.566406
1687.757645	0.089879	0.285965	12696.244141
1687.758509	0.089864	0.285965	12773.886719
1687.759591	0.089989	0.285965	12871.254883
1687.760575	0.089923	0.285965	12959.739258
1687.761464	0.089897	0.285965	13039.658203
1688.816161	1.146830	0.268281	589.470459
1688.817168	1.533512	0.268281	2133.717041
1688.818050	1.508804	0.268281	3464.481934
1688.819040	1.465737	0.268281	4915.561523
1688.820091	1.421558	0.268281	6409.618652
1688.821004	1.384373	0.268281	7673.550781
1688.821870	1.349601	0.268281	8842.304687
1688.822967	1.310651	0.268281	10280.088867
1688.823950	1.276296	0.268281	11534.688477
1688.824827	0.730865	0.268281	12175.657227
1688.825892	0.092571	0.268281	12274.245117
1688.826933	0.089850	0.268281	12367.779297
1688.827825	0.089839	0.268281	12447.916016
1688.828733	0.089934	0.268281	12529.576172
1688.829805	0.089930	0.268281	12625.981445
1688.830757	0.089835	0.268281	12711.504883
1688.831622	0.089832	0.268281	12789.208984
1688.832670	0.089960	0.268281	12883.486328
1688.833686	0.089938	0.268281	12974.863281
1688.834571	0.089908	0.268281	13054.432617
1689.775532	1.114794	0.300439	600.873779
1689.776590	1.532410	0.300439	2222.163086
1689.777508	1.504537	0.300439	3603.328369
1689.778369	1.465408	0.300439	4865.044434
1689.779435	1.421126	0.300439	6379.964355
1689.780434	1.380868	0.300439	7759.451172
1689.781330	1.346788	0.300439	8966.173828
1689.782318	1.311006	0.300439	10261.447266
1689.783370	1.274011	0.300439	11601.707031
1689.784282	0.596455	0.300439	12145.673828
1689.785147	0.093087	0.300439	12226.194336
1689.786259	0.089912	0.300439	12326.176758
1689.787220	0.089824	0.300439	12412.498047
1689.788085	0.089854	0.300439	12490.221680
1689.789152	0.089949	0.300439	12586.197266
1689.790197	0.089875	0.300439	12680.117187
1689.791087	0.089821	0.300439	12760.057617
1689.792002	0.089843	0.300439	12842.263672
1689.792866	0.089868	0.300439	12919.910156
1689.793845	0.089956	0.300439	13007.977539
1690.853027	1.144138	0.286190	586.942871
1690.853953	1.532560	0.286190	2006.093262
1690.854818	1.512517	0.286190	3314.420410
1690.855905	1.466041	0.286190	4908.007324
1690.856915	1.423198	0.286190	6345.437500
1690.857798	1.387189	0.286190	7570.325195
1690.858786	1.349839	0.286190	8903.965820
1690.859837	1.310940	0.286190	10281.763672
1690.860743	1.278556	0.286190	11440.135742
1690.861618	0.802906	0.286190	12142.678711
1690.862678	0.094314	0.286190	12242.651367
1690.863672	0.089839	0.286190	12331.951172
1690.864567	0.089897	0.286190	12412.409180
1690.865554	0.089982	0.286190	12501.220703
1690.866598	0.089879	0.286190	12595.054687
1690.867502	0.089879	0.286190	12676.305664
1690.868365	0.089894	0.286190	12753.883789
1690.869470	0.090015	0.286190	12853.349609
1690.870446	0.089901	0.286190	12941.092773
1690.871313	0.089824	0.286190	13018.970703
1691.810163	1.118353	0.299576	532.336121
1691.811039	1.530004	0.299576	1872.619385
1691.812039	1.511744	0.299576	3384.363770
1691.813085	1.466008	0.299576	4917.808594
1691.813996	1.427058	0.299576	6217.858398
1691.814860	1.390280	0.299576	7419.060059
1691.815939	1.349275	0.299576	8874.927734
1691.816946	1.312167	0.299576	10196.279297
1691.817845	1.280815	0.299576	11347.732422
1691.818844	0.750073	0.299576	12097.055664
1691.819895	0.093252	0.299576	12195.063477
1691.820789	0.089938	0.299576	12275.467773
1691.821671	0.089908	0.299576	12354.766602
1691.822779	0.089901	0.299576	12454.376953
1691.823739	0.089967	0.299576	12540.745117
1691.824604	0.089912	0.299576	12618.519531
1691.825642	0.090018	0.299576	12711.958984
1691.826676	0.089949	0.299576	12804.965820
1691.827567	0.089974	0.299576	12885.132812
1691.828516	0.090018	0.299576	12970.560547
1692.890821	1.060983	0.283145	456.222504
1692.891688	1.526660	0.283145	1779.836914
1692.892754	1.510459	0.283145	3389.986328
1692.893713	1.468813	0.283145	4798.578125
1692.894596	1.431248	0.283145	6062.369629
1692.895548	1.392803	0.283145	7388.317871
1692.896580	1.352699	0.283145	8784.302734
1692.897470	1.319282	0.283145	9958.463867
1692.898335	1.288367	0.283145	11072.901367
1692.899400	0.918457	0.283145	12051.058594
1692.900349	0.107787	0.283145	12153.348633
1692.901214	0.089846	0.283145	12231.065430
1692.902259	0.089894	0.283145	12325.004883
1692.903285	0.089886	0.283145	12417.228516
1692.904160	0.089894	0.283145	12495.885742
1692.905107	0.089894	0.283145	12581.015625
1692.906154	0.089982	0.283145	12675.226562
1692.907088	0.089821	0.283145	12759.119141
1692.907952	0.089912	0.283145	12836.802734
1692.909011	0.089956	0.283145	12932.066406
1693.844672	1.069149	0.298618	455.457581
1693.845759	1.531520	0.298618	2120.219482
1693.846755	1.504186	0.298618	3618.388672
1693.847646	1.465228	0.298618	4923.907227
1693.848661	1.423114	0.298618	6368.368164
1693.849714	1.380842	0.298618	7822.395020
1693.850600	1.346041	0.298618	9014.987305
1693.851494	1.312588	0.298618	10188.440430
1693.852572	1.275582	0.298618	11563.518555
1693.853537	0.609199	0.298618	12151.395508
1693.854396	0.093296	0.298618	12231.537109
1693.855433	0.089905	0.298618	12324.768555
1693.856470	0.089883	0.298618	12417.976562
1693.857342	0.089806	0.298618	12496.287109
1693.858270	0.089956	0.298618	12579.766602
1693.859339	0.089919	0.298618	12675.890625
1693.860293	0.089861	0.298618	12761.618164
1693.861161	0.089916	0.298618	12839.665039
1693.862193	0.089952	0.298618	12932.496094
1693.863204	0.089912	0.298618	13023.397461
1694.926222	1.120247	0.281256	563.484009
1694.927112	1.531457	0.281256	1926.481079
1694.927975	1.513121	0.281256	3232.304687
1694.929092	1.466528	0.281256	4870.416992
1694.930068	1.425355	0.281256	6261.563477
1694.930998	1.387570	0.281256	7552.002930
1694.931870	1.353552	0.281256	8732.300781
1694.932915	1.316122	0.281256	10107.648437
1694.933812	1.283738	0.281256	11259.161133
1694.934691	0.988297	0.281256	12127.874023
1694.935566	0.126570	0.281256	12238.623047
1694.936619	0.089806	0.281256	12333.188477
1694.937497	0.089960	0.281256	12412.172852
1694.938375	0.089905	0.281256	12491.109375
1694.939353	0.089923	0.281256	12579.053711
1694.940290	0.089912	0.281256	12663.301758
1694.941170	0.089875	0.281256	12742.392578
1694.942127	0.089978	0.281256	12828.501953
1694.943141	0.089916	0.281256	12919.676758
1694.944027	0.089919	0.281256	12999.345703
1695.876941	1.081897	0.303915	477.116577
1695.877879	1.529839	0.303915	1912.105347
1695.878749	1.514114	0.303915	3229.384277
1695.879795	1.470022	0.303915	4767.027344
1695.880669	1.432247	0.303915	6018.811523
1695.881551	1.396414	0.303915	7250.448242
1695.882531	1.358503	0.303915	8581.781250
1695.883461	1.323007	0.303915	9812.177734
1695.884394	1.290260	0.303915	11015.990234
1695.885261	1.147841	0.303915	12011.167969
1695.886314	0.140222	0.303915	12158.822266
1695.887206	0.089725	0.303915	12238.857422
1695.888063	0.089868	0.303915	12315.874023
1695.889128	0.089927	0.303915	12411.646484
1695.890062	0.089883	0.303915	12495.596680
1695.890937	0.089864	0.303915	12574.228516
1695.891873	0.089857	0.303915	12658.334961
1695.892932	0.089912	0.303915	12753.551758
1695.893807	0.089945	0.303915	12832.253906
1695.894672	0.089875	0.303915	12909.996094
1696.961711	1.163518	0.290062	620.155151
1696.962762	1.533054	0.290062	2231.395020
1696.963657	1.505511	0.290062	3578.827637
1696.964585	1.464489	0.290062	4937.873047
1696.965664	1.419617	0.290062	6469.639648
1696.966612	1.381403	0.290062	7779.209473
1696.967478	1.347609	0.290062	8946.238281
1696.968539	1.309145	0.290062	10335.241211
1696.969566	1.273370	0.290062	11642.992187
1696.970470	0.588303	0.290062	12174.818359
1696.971421	0.093069	0.290062	12263.327148
1696.972453	0.089930	0.290062	12356.135742
1696.973381	0.089857	0.290062	12439.523437
1696.974239	0.089894	0.290062	12516.652344
1696.975310	0.090033	0.290062	12613.078125
1696.976316	0.089916	0.290062	12703.533203
1696.977193	0.089875	0.290062	12782.353516
1696.978165	0.089978	0.290062	12869.812500
1696.979217	0.089934	0.290062	12964.422852
1696.980131	0.089912	0.290062	13046.602539
1697.913305	1.076122	0.315355	484.254852
1697.914165	1.527305	0.315355	1797.736938
1697.915246	1.509748	0.315355	3429.774902
1697.916258	1.465210	0.315355	4912.567383
1697.917135	1.427970	0.315355	6164.896973
1697.918122	1.387855	0.315355	7534.709961
1697.919195	1.346580	0.315355	8979.589844
1697.920105	1.312899	0.315355	10174.328125
1697.920977	1.280731	0.315355	11291.125977
1697.922092	0.670067	0.315355	12038.250977
1697.923062	0.092212	0.315355	12127.696289
1697.923929	0.089861	0.315355	12205.605469
1697.924972	0.089945	0.315355	12299.417969
1697.926006	0.089835	0.315355	12392.307617
1697.926904	0.089843	0.315355	12472.986328
1697.927776	0.089894	0.315355	12551.374023
1697.928681	0.089941	0.315355	12632.771484
1697.929696	0.089872	0.315355	12723.991211
1697.930582	0.089938	0.315355	12803.675781
1697.931453	0.089934	0.315355	12882.008789
1698.998077	1.161954	0.292495	644.884644
1698.999145	1.532618	0.292495	2281.721191
1699.000055	1.503058	0.292495	3649.503906
1699.000940	1.462680	0.292495	4943.975098
1699.002053	1.417478	0.292495	6521.627930
1699.003014	1.379176	0.292495	7847.016113
1699.003879	1.345463	0.292495	9010.841797
1699.004944	1.307172	0.292495	10402.979492
1699.005972	1.271181	0.292495	11709.752930
1699.006869	0.518676	0.292495	12175.004883
1699.007814	0.092025	0.292495	12261.968750
1699.008867	0.089927	0.292495	12356.662109
1699.009803	0.089846	0.292495	12440.757812
1699.010661	0.089872	0.292495	12517.868164
1699.011715	0.089996	0.292495	12612.724609
1699.012734	0.089905	0.292495	12704.337891
1699.013611	0.089883	0.292495	12783.165039
1699.014570	0.089927	0.292495	12869.405273
1699.015607	0.089974	0.292495	12962.708984
1699.016519	0.089854	0.292495	13044.655273
1699.946821	1.059749	0.303069	455.691864
1699.947801	1.525624	0.303069	1950.803223
1699.948863	1.506020	0.303069	3550.196777
1699.949795	1.465159	0.303069	4915.724609
1699.950656	1.427622	0.303069	6144.907227
1699.951725	1.384680	0.303069	7625.130371
1699.952733	1.345701	0.303069	8981.596680
1699.953628	1.313196	0.303069	10156.907227
1699.954624	1.278611	0.303069	11430.403320
1699.955696	0.594543	0.303069	12067.753906
1699.956601	0.091739	0.303069	12150.778320
1699.957460	0.089821	0.303069	12227.934570
1699.958563	0.089938	0.303069	12327.135742
1699.959526	0.089806	0.303069	12413.619141
1699.960392	0.089974	0.303069	12491.537109
1699.961455	0.089901	0.303069	12587.101562
1699.962485	0.089828	0.303069	12679.624023
1699.963376	0.089788	0.303069	12759.625000
1699.964293	0.089894	0.303069	12842.057617
1699.965341	0.089846	0.303069	12936.216797
1701.033913	1.067252	0.287850	453.582153
1701.034980	1.530623	0.287850	2086.756348
1701.035982	1.504211	0.287850	3593.976074
1701.036878	1.465474	0.287850	4907.040527
1701.037863	1.424143	0.287850	6309.821289
1701.038915	1.381747	0.287850	7763.418945
1701.039827	1.346199	0.287850	8991.152344
1701.040694	1.312921	0.287850	10129.455078
1701.041803	1.275472	0.287850	11543.954102
1701.042785	0.598088	0.287850	12131.277344
1701.043650	0.092867	0.287850	12211.607422
1701.044702	0.089883	0.287850	12306.164062
1701.045743	0.089864	0.287850	12399.712891
1701.046633	0.089912	0.287850	12479.734375
1701.047566	0.089875	0.287850	12563.587891
1701.048620	0.089960	0.287850	12658.405273
1701.049555	0.089894	0.287850	12742.456055
1701.050419	0.089843	0.287850	12820.080078
1701.051470	0.089912	0.287850	12914.578125
1701.052490	0.089854	0.287850	13006.228516
1701.980953	1.115354	0.319907	579.984070
1701.982015	1.532142	0.319907	2207.119385
1701.982934	1.504336	0.319907	3589.604004
1701.983813	1.464423	0.319907	4876.831543
1701.984917	1.419463	0.319907	6443.918457
1701.985901	1.379301	0.319907	7801.150391
1701.986803	1.345089	0.319907	9014.420898
1701.987816	1.308486	0.319907	10339.917969
1701.988886	1.271539	0.319907	11700.464844
1701.989788	0.507913	0.319907	12158.601562
1701.990677	0.091761	0.319907	12240.177734
1701.991787	0.089905	0.319907	12339.971680
1701.992746	0.089850	0.319907	12426.137695
1701.993608	0.089875	0.319907	12503.610352
1701.994640	0.089982	0.319907	12596.471680
1701.995655	0.089916	0.319907	12687.736328
1701.996539	0.089872	0.319907	12767.182617
1701.997458	0.089850	0.319907	12849.754883
1701.998504	0.089930	0.319907	12943.822266
1701.999441	0.089868	0.319907	13028.028320
1703.069894	1.069006	0.290187	460.741730
1703.070764	1.526979	0.290187	1789.213135
1703.071766	1.513502	0.290187	3305.742187
1703.072724	1.471249	0.290187	4715.198242
1703.073653	1.432123	0.290187	6045.640137
1703.074521	1.395710	0.290187	7257.116699
1703.075573	1.355706	0.290187	8683.319336
1703.076453	1.322212	0.290187	9846.865234
1703.077319	1.291095	0.290187	10964.953125
1703.078358	1.018839	0.290187	12023.527344
1703.079313	0.125153	0.290187	12143.047852
1703.080192	0.089799	0.290187	12221.980469
1703.081122	0.089905	0.290187	12305.591797
1703.082182	0.089839	0.290187	12400.821289
1703.083076	0.089923	0.290187	12481.212891
1703.083938	0.089897	0.290187	12558.704102
1703.084980	0.089919	0.290187	12652.400391
1703.085931	0.089868	0.290187	12737.865234
1703.086803	0.089813	0.290187	12816.182617
1703.087675	0.089927	0.290187	12894.598633
1704.016836	1.064008	0.319746	455.395264
1704.017808	1.526232	0.319746	1938.892456
1704.018844	1.507493	0.319746	3500.654785
1704.019737	1.468085	0.319746	4811.654297
1704.020599	1.430709	0.319746	6044.925781
1704.021656	1.388511	0.319746	7512.581543
1704.022591	1.351919	0.319746	8776.625977
1704.023469	1.319594	0.319746	9935.229492
1704.024411	1.286363	0.319746	11146.984375
1704.025463	0.886805	0.319746	12079.903320
1704.026360	0.106498	0.319746	12175.431641
1704.027227	0.089894	0.319746	12253.369141
1704.028292	0.090007	0.319746	12349.226562
1704.029245	0.089978	0.319746	12434.975586
1704.030109	0.089927	0.319746	12512.671875
1704.031149	0.089996	0.319746	12606.267578
1704.032158	0.089854	0.319746	12696.929687
1704.033049	0.089941	0.319746	12777.067383
1704.033995	0.089985	0.319746	12862.193359
1704.035030	0.090011	0.319746	12955.354492
1705.103287	1.049689	0.299915	442.968628
1705.104339	1.529842	0.299915	2052.362793
1705.105370	1.504603	0.299915	3603.608887
1705.106263	1.465159	0.299915	4911.995605
1705.107210	1.425611	0.299915	6262.049805
1705.108269	1.382611	0.299915	7726.234863
1705.109205	1.346473	0.299915	8986.534180
1705.110069	1.314181	0.299915	10121.986328
1705.111119	1.277941	0.299915	11463.824219
1705.112140	0.625638	0.299915	12102.601562
1705.113015	0.093201	0.299915	12184.152344
1705.113984	0.089908	0.299915	12271.273437
1705.115040	0.089923	0.299915	12366.232422
1705.115952	0.089890	0.299915	12448.211914
1705.116863	0.089934	0.299915	12530.141602
1705.117732	0.089960	0.299915	12608.316406
1705.118763	0.089875	0.299915	12700.978516
1705.119651	0.089843	0.299915	12780.758789
1705.120529	0.089890	0.299915	12859.682617
1705.121502	0.089938	0.299915	12947.192383
1706.051604	1.132053	0.317362	573.950989
1706.052524	1.531439	0.317362	1982.875000
1706.053458	1.510529	0.317362	3393.708740
1706.054328	1.471216	0.317362	4673.666504
1706.055374	1.428164	0.317362	6167.525879
1706.056260	1.391803	0.317362	7400.663086
1706.057131	1.357764	0.317362	8583.275391
1706.058103	1.321864	0.317362	9868.126953
1706.059051	1.287777	0.317362	11088.939453
1706.059967	1.081271	0.317362	12079.383789
1706.060848	0.152410	0.317362	12213.656250
1706.061866	0.089839	0.317362	12305.112305
1706.062758	0.089879	0.317362	12385.284180
1706.063633	0.089934	0.317362	12463.976562
1706.064549	0.089905	0.317362	12546.329102
1706.065546	0.089905	0.317362	12635.963867
1706.066429	0.089927	0.317362	12715.369141
1706.067286	0.089923	0.317362	12792.433594
1706.068385	0.089916	0.317362	12891.250977
1706.069273	0.089901	0.317362	12971.083008
1707.139773	1.053519	0.291729	445.638641
1707.140813	1.530077	0.291729	2036.918579
1707.141836	1.505252	0.291729	3576.791016
1707.142726	1.465975	0.291729	4881.509277
1707.143677	1.426476	0.291729	6238.087891
1707.144731	1.383699	0.291729	7696.506348
1707.145659	1.347510	0.291729	8946.995117
1707.146522	1.315214	0.291729	10082.024414
1707.147590	1.278270	0.291729	11447.216797
1707.148613	0.638408	0.291729	12100.308594
1707.149495	0.093442	0.291729	12182.724609
1707.150466	0.089952	0.291729	12270.068359
1707.151537	0.089868	0.291729	12366.317383
1707.152432	0.089875	0.291729	12446.755859
1707.153297	0.089919	0.291729	12524.536133
1707.154362	0.090015	0.291729	12620.401367
1707.155347	0.089864	0.291729	12708.917969
1707.156238	0.089894	0.291729	12789.013672
1707.157208	0.089974	0.291729	12876.289062
1707.158271	0.089952	0.291729	12971.908203
1708.086744	1.075309	0.325974	488.190247
1708.087829	1.531373	0.325974	2149.730225
1708.088787	1.504669	0.325974	3591.203369
1708.089655	1.466173	0.325974	4863.841797
1708.090700	1.422576	0.325974	6350.433594
1708.091741	1.380670	0.325974	7787.711426
1708.092623	1.346287	0.325974	8975.136719
1708.093586	1.311489	0.325974	10238.100586
1708.094639	1.273879	0.325974	11579.496094
1708.095578	0.596173	0.325974	12139.302734
1708.096439	0.093102	0.325974	12219.463867
1708.097498	0.089941	0.325974	12314.711914
1708.098502	0.089854	0.325974	12404.924805
1708.099395	0.089875	0.325974	12485.183594
1708.100377	0.089934	0.325974	12573.499023
1708.101426	0.089894	0.325974	12667.797852
1708.102345	0.089857	0.325974	12750.376953
1708.103202	0.089864	0.325974	12827.390625
1708.104280	0.089982	0.325974	12924.390625
1708.105273	0.089817	0.325974	13013.579102
1709.174241	1.195642	0.301711	706.624512
1709.175246	1.533109	0.301711	2247.399414
1709.176132	1.505098	0.301711	3580.916016
1709.177167	1.460588	0.301711	5092.625000
1709.178220	1.416449	0.301711	6584.145508
1709.179110	1.380077	0.301711	7812.414062
1709.180027	1.344595	0.301711	9045.407227
1709.181102	1.305948	0.301711	10449.301758
1709.182054	1.272814	0.301711	11661.020508
1709.182920	0.619266	0.301711	12197.304687
1709.183958	0.091362	0.301711	12292.138672
1709.184986	0.089890	0.301711	12384.545898
1709.185877	0.089905	0.301711	12464.651367
1709.186814	0.089971	0.301711	12548.954102
1709.187866	0.089952	0.301711	12643.583984
1709.188799	0.089971	0.301711	12727.526367
1709.189665	0.090037	0.301711	12805.498047
1709.190728	0.089956	0.301711	12901.121094
1709.191732	0.089912	0.301711	12991.392578
1709.192621	0.089978	0.301711	13071.382812
1710.122575	1.075104	0.324210	467.670135
1710.123437	1.526177	0.324210	1783.234497
1710.124531	1.509258	0.324210	3434.362549
1710.125448	1.468755	0.324210	4781.210937
1710.126311	1.431130	0.324210	6016.276367
1710.127389	1.388544	0.324210	7513.126465
1710.128390	1.349341	0.324210	8863.816406
1710.129275	1.316829	0.324210	10029.209961
1710.130257	1.282104	0.324210	11288.236328
1710.131343	0.715492	0.324210	12065.260742
1710.132230	0.095094	0.324210	12149.609375
1710.133102	0.089806	0.324210	12227.919922
1710.134204	0.089905	0.324210	12326.995117
1710.135181	0.089832	0.324210	12414.760742
1710.136050	0.089843	0.324210	12492.833984
1710.137080	0.089839	0.324210	12585.368164
1710.138129	0.089832	0.324210	12679.601562
1710.139021	0.089886	0.324210	12759.780273
1710.139933	0.089938	0.324210	12841.803711
1710.140990	0.089868	0.324210	12936.793945
1711.208665	1.080450	0.297824	481.880890
1711.209531	1.527100	0.297824	1804.349121
1711.210616	1.508914	0.297824	3441.520508
1711.211618	1.464653	0.297824	4909.103027
1711.212501	1.427490	0.297824	6169.577148
1711.213507	1.387581	0.297824	7565.483398
1711.214557	1.346895	0.297824	8979.722656
1711.215446	1.312928	0.297824	10146.916016
1711.216356	1.280991	0.297824	11312.618164
1711.217242	0.875559	0.297824	12088.363281
1711.218276	0.096947	0.297824	12188.606445
1711.219169	0.089839	0.297824	12268.833008
1711.220044	0.089883	0.297824	12347.480469
1711.221027	0.089967	0.297824	12435.917969
1711.221969	0.089824	0.297824	12520.532227
1711.222893	0.089934	0.297824	12603.630859
1711.223755	0.089897	0.297824	12681.122070
1711.224798	0.089897	0.297824	12774.884766
1711.225671	0.089886	0.297824	12853.355469
1711.226538	0.089839	0.297824	12931.246094
1712.159168	1.051780	0.330554	451.213501
1712.160036	1.526316	0.330554	1776.055664
1712.161092	1.511137	0.330554	3371.815918
1712.162008	1.469982	0.330554	4718.319336
1712.162935	1.431240	0.330554	6045.079102
1712.163800	1.394498	0.330554	7251.320312
1712.164844	1.355255	0.330554	8666.207031
1712.165730	1.322098	0.330554	9837.585937
1712.166591	1.290234	0.330554	10948.477539
1712.167690	0.984866	0.330554	12030.844727
1712.168594	0.122970	0.330554	12142.009766
1712.169473	0.089832	0.330554	12220.971680
1712.170464	0.090004	0.330554	12310.165039
1712.171458	0.089832	0.330554	12399.458008
1712.172346	0.089941	0.330554	12479.326172
1712.173205	0.089919	0.330554	12556.567383
1712.174288	0.089960	0.330554	12653.994141
1712.175226	0.089857	0.330554	12738.280273
1712.176102	0.089963	0.330554	12817.087891
1712.177062	0.090026	0.330554	12903.512695
1713.242688	1.068120	0.302610	453.951050
1713.243760	1.530751	0.302610	2094.916016
1713.244768	1.503398	0.302610	3610.341797
1713.245663	1.464540	0.302610	4921.104980
1713.246642	1.423711	0.302610	6314.917969
1713.247700	1.381099	0.302610	7776.120117
1713.248609	1.345825	0.302610	8999.475586
1713.249477	1.312445	0.302610	10138.677734
1713.250588	1.274930	0.302610	11555.125000
1713.251565	0.591559	0.302610	12133.078125
1713.252437	0.092688	0.302610	12213.902344
1713.253503	0.090022	0.302610	12309.866211
1713.254541	0.089824	0.302610	12403.103516
1713.255427	0.089875	0.302610	12482.733398
1713.256307	0.089945	0.302610	12561.884766
1713.257239	0.090048	0.302610	12645.809570
1713.258226	0.089886	0.302610	12734.527344
1713.259139	0.089861	0.302610	12816.570312
1713.260023	0.089857	0.302610	12896.003906
1713.261040	0.089956	0.302610	12987.489258
1714.192245	1.114131	0.325072	534.782837
1714.193132	1.529579	0.325072	1891.519287
1714.194146	1.510173	0.325072	3422.834961
1714.195056	1.468777	0.325072	4759.421875
1714.195970	1.430167	0.325072	6066.594727
1714.196849	1.393484	0.325072	7291.466797
1714.197891	1.353951	0.325072	8702.284180
1714.198787	1.320743	0.325072	9885.669922
1714.199666	1.289674	0.325072	11019.292969
1714.200651	1.042635	0.325072	12046.289062
1714.201612	0.126218	0.325072	12167.584961
1714.202491	0.089817	0.325072	12246.534180
1714.203435	0.089923	0.325072	12331.421875
1714.204456	0.089963	0.325072	12423.274414
1714.205342	0.089901	0.325072	12502.926758
1714.206201	0.089905	0.325072	12580.155273
1714.207251	0.090033	0.325072	12674.689453
1714.208186	0.089901	0.325072	12758.747070
1714.209060	0.089934	0.325072	12837.349609
1714.209975	0.089960	0.325072	12919.663086
1715.278661	1.063795	0.301639	457.431946
1715.279620	1.526133	0.301639	1920.993408
1715.280678	1.506650	0.301639	3515.029297
1715.281598	1.466290	0.301639	4864.016602
1715.282461	1.428798	0.301639	6097.068848
1715.283527	1.386350	0.301639	7574.917969
1715.284532	1.347418	0.301639	8929.073242
1715.285413	1.314961	0.301639	10087.553711
1715.286417	1.280200	0.301639	11372.875000
1715.287463	0.684712	0.301639	12089.083984
1715.288363	0.094171	0.301639	12173.837891
1715.289224	0.089875	0.301639	12251.220703
1715.290311	0.089938	0.301639	12348.983398
1715.291283	0.089872	0.301639	12436.338867
1715.292164	0.089835	0.301639	12515.483398
1715.293157	0.089985	0.301639	12604.838867
1715.294220	0.089908	0.301639	12700.411133
1715.295108	0.089872	0.301639	12780.217773
1715.295972	0.089883	0.301639	12857.876953
1715.297076	0.089945	0.301639	12957.176758
1716.228413	1.057555	0.329495	448.403290
1716.229343	1.525334	0.329495	1866.964355
1716.230413	1.507192	0.329495	3479.660156
1716.231359	1.466103	0.329495	4866.593750
1716.232232	1.428746	0.329495	6113.889160
1716.233294	1.385889	0.329495	7585.703125
1716.234317	1.346371	0.329495	8963.041016
1716.235213	1.313562	0.329495	10139.992187
1716.236183	1.280024	0.329495	11381.616211
1716.237241	0.653156	0.329495	12072.654297
1716.238168	0.092747	0.329495	12158.630859
1716.239030	0.089846	0.329495	12236.078125
1716.240101	0.089982	0.329495	12332.448242
1716.241088	0.089930	0.329495	12421.209961
1716.241981	0.089989	0.329495	12501.570312
1716.242972	0.089952	0.329495	12590.712891
1716.244008	0.089930	0.329495	12683.880859
1716.244904	0.089824	0.329495	12764.363281
1716.245830	0.089934	0.329495	12847.642578
1716.246691	0.090033	0.329495	12925.161133
1717.312977	1.186436	0.299742	683.386902
1717.314037	1.532179	0.299742	2307.496582
1717.314927	1.503351	0.299742	3645.479004
1717.315814	1.462782	0.299742	4942.966797
1717.316933	1.417822	0.299742	6529.509766
1717.317888	1.379253	0.299742	7846.696289
1717.318750	1.345572	0.299742	9006.580078
1717.319777	1.308248	0.299742	10350.151367
1717.320804	1.272400	0.299742	11656.906250
1717.321704	0.577533	0.299742	12176.685547
1717.322659	0.092717	0.299742	12265.230469
1717.323714	0.089879	0.299742	12360.052734
1717.324650	0.089982	0.299742	12444.275391
1717.325523	0.089938	0.299742	12522.791016
1717.326598	0.089963	0.299742	12619.501953
1717.327610	0.089854	0.299742	12710.433594
1717.328507	0.089949	0.299742	12791.117187
1717.329470	0.090004	0.299742	12877.791016
1717.330520	0.090026	0.299742	12972.318359
1717.331436	0.089916	0.299742	13054.681641
1718.263322	1.134001	0.336979	571.536743
1718.264338	1.532589	0.336979	2128.647217
1718.265223	1.507969	0.336979	3463.199707
1718.266222	1.464825	0.336979	4926.560547
1718.267287	1.420378	0.336979	6439.263672
1718.268175	1.383787	0.336979	7668.066406
1718.269074	1.348209	0.336979	8880.106445
1718.270171	1.309028	0.336979	10316.110352
1718.271130	1.275264	0.336979	11539.087891
1718.271995	0.733473	0.336979	12173.541992
1718.273014	0.093563	0.336979	12268.882812
1718.274044	0.090000	0.336979	12361.583008
1718.274938	0.089949	0.336979	12441.997070
1718.275887	0.089982	0.336979	12527.389648
1718.276940	0.089960	0.336979	12622.117187
1718.277871	0.090037	0.336979	12705.941406
1718.278741	0.089897	0.336979	12784.152344
1718.279797	0.090088	0.336979	12879.285156
1718.280807	0.089967	0.336979	12970.152344
1718.281695	0.089967	0.336979	13050.042969
1719.348026	1.049275	0.311412	439.646149
1719.348912	1.524811	0.311412	1790.628540
1719.350023	1.507482	0.311412	3465.440674
1719.350988	1.465514	0.311412	4879.661621
1719.351861	1.428146	0.311412	6126.432617
1719.352900	1.386141	0.311412	7566.633301
1719.353940	1.346418	0.311412	8966.908203
1719.354835	1.313221	0.311412	10142.241211
1719.355785	1.280233	0.311412	11358.462891
1719.356848	0.660220	0.311412	12060.276367
1719.357795	0.092505	0.311412	12147.878906
1719.358658	0.089861	0.311412	12225.428711
1719.359736	0.089985	0.311412	12322.432617
1719.360725	0.089883	0.311412	12411.327148
1719.361608	0.089938	0.311412	12490.742187
1719.362593	0.090029	0.311412	12579.420898
1719.363634	0.089938	0.311412	12673.045898
1719.364545	0.089886	0.311412	12754.932617
1719.365405	0.089901	0.311412	12832.248047
1719.366477	0.089938	0.311412	12928.661133
1720.297316	1.106668	0.332041	510.173737
1720.298196	1.528810	0.332041	1855.526367
1720.299174	1.511938	0.332041	3334.202148
1720.300231	1.465551	0.332041	4883.289062
1720.301154	1.426549	0.332041	6199.994141
1720.302022	1.389836	0.332041	7406.372070
1720.303132	1.348022	0.332041	8902.676758
1720.304106	1.312251	0.332041	10180.809570
1720.304990	1.281200	0.332041	11313.390625
1720.306025	0.741368	0.332041	12080.707031
1720.307075	0.092805	0.332041	12178.152344
1720.307963	0.089927	0.332041	12258.006836
1720.308852	0.089967	0.332041	12337.987305
1720.309933	0.089938	0.332041	12435.209961
1720.310879	0.089857	0.332041	12520.214844
1720.311739	0.089912	0.332041	12597.539062
1720.312770	0.089941	0.332041	12690.268555
1720.313804	0.089868	0.332041	12783.192383
1720.314690	0.089930	0.332041	12862.871094
1720.315628	0.089905	0.332041	12947.202148
1721.383489	1.176343	0.308076	655.222900
1721.384408	1.532362	0.308076	2063.463623
1721.385341	1.508009	0.308076	3470.436035
1721.386211	1.468103	0.308076	4747.685547
1721.387268	1.425161	0.308076	6254.081055
1721.388166	1.388529	0.308076	7500.979980
1721.389047	1.354164	0.308076	8693.998047
1721.390058	1.318037	0.308076	10026.533203
1721.390988	1.284426	0.308076	11221.049805
1721.391867	1.031711	0.308076	12127.923828
1721.392861	0.131426	0.308076	12258.561523
1721.393861	0.089802	0.308076	12348.364258
1721.394739	0.089941	0.308076	12427.333008
1721.395600	0.089875	0.308076	12504.715820
1721.396646	0.089905	0.308076	12598.755859
1721.397576	0.089828	0.308076	12682.295898
1721.398458	0.089963	0.308076	12761.643555
1721.399405	0.089938	0.308076	12846.814453
1721.400436	0.089912	0.308076	12939.513672
1721.401331	0.089927	0.308076	13019.998047
1722.332470	1.049026	0.345395	441.639893
1722.333514	1.530502	0.345395	2039.483643
1722.334418	1.509847	0.345395	3404.385742
1722.335288	1.471439	0.345395	4684.537598
1722.336365	1.426117	0.345395	6220.465820
1722.337345	1.386456	0.345395	7579.192871
1722.338223	1.352054	0.345395	8766.296875
1722.339137	1.317913	0.345395	9970.869141
1722.340226	1.280867	0.345395	11365.732422
1722.341114	0.886414	0.345395	12152.867187
1722.341975	0.109622	0.345395	12247.250977
1722.343020	0.089971	0.345395	12341.270508
1722.343970	0.089912	0.345395	12426.687500
1722.344843	0.089934	0.345395	12505.200195
1722.345723	0.089916	0.345395	12584.326172
1722.346832	0.089872	0.345395	12683.994141
1722.347725	0.089927	0.345395	12764.298828
1722.348588	0.089952	0.345395	12841.927734
1722.349711	0.089993	0.345395	12942.989258
1722.350675	0.089938	0.345395	13029.689453
1723.417655	1.046473	0.310469	437.425873
1723.418560	1.524540	0.310469	1817.134399
1723.419634	1.507928	0.310469	3436.649658
1723.420601	1.466217	0.310469	4854.481445
1723.421470	1.429241	0.310469	6096.491699
1723.422518	1.386855	0.310469	7549.916016
1723.423540	1.347609	0.310469	8927.171875
1723.424433	1.314452	0.310469	10100.977539
1723.425391	1.281541	0.310469	11328.693359
1723.426456	0.691377	0.310469	12065.009766
1723.427383	0.093757	0.310469	12151.922852
1723.428243	0.089938	0.310469	12229.269531
1723.429298	0.089978	0.310469	12324.196289
1723.430304	0.089872	0.310469	12414.607422
1723.431182	0.089912	0.310469	12493.549805
1723.432157	0.089989	0.310469	12581.289062
1723.433189	0.089949	0.310469	12674.116211
1723.434087	0.089868	0.310469	12754.817383
1723.434994	0.089938	0.310469	12836.390625
1723.435870	0.089912	0.310469	12915.153320
1724.368813	1.142329	0.340089	615.715393
1724.369875	1.531842	0.340089	2242.531738
1724.370792	1.503003	0.340089	3620.785645
1724.371658	1.463390	0.340089	4888.081543
1724.372761	1.419071	0.340089	6453.316895
1724.373721	1.379491	0.340089	7777.627930
1724.374646	1.344324	0.340089	9021.126953
1724.375531	1.312299	0.340089	10182.510742
1724.376545	1.277435	0.340089	11477.830078
1724.377455	0.729053	0.340089	12141.267578
1724.378376	0.095563	0.340089	12229.281250
1724.379234	0.089824	0.340089	12306.350586
1724.380272	0.089857	0.340089	12399.622070
1724.381168	0.089897	0.340089	12480.169922
1724.382043	0.089879	0.340089	12558.814453
1724.383016	0.089919	0.340089	12646.305664
1724.383954	0.089854	0.340089	12730.587891
1724.384877	0.089930	0.340089	12813.593750
1724.385742	0.089945	0.340089	12891.396484
1724.386783	0.089872	0.340089	12984.953125
1725.453188	1.110487	0.315037	553.022583
1725.454073	1.530271	0.315037	1907.312500
1725.454956	1.512217	0.315037	3242.600098
1725.456072	1.465042	0.315037	4877.586426
1725.457034	1.424758	0.315037	6248.204102
1725.457897	1.389349	0.315037	7447.212402
1725.458944	1.349260	0.315037	8859.887695
1725.459990	1.310958	0.315037	10231.150391
1725.460876	1.279409	0.315037	11364.707031
1725.461826	0.796520	0.315037	12121.400391
1725.462878	0.094889	0.315037	12221.223633
1725.463814	0.089974	0.315037	12305.439453
1725.464676	0.089850	0.315037	12382.889648
1725.465741	0.089982	0.315037	12478.719727
1725.466743	0.089864	0.315037	12568.763672
1725.467615	0.089817	0.315037	12647.083984
1725.468566	0.090037	0.315037	12732.708984
1725.469614	0.089960	0.315037	12826.986328
1725.470533	0.089905	0.315037	12909.608398
1725.471403	0.089908	0.315037	12987.829102
1726.403192	1.107356	0.345592	537.067627
1726.404076	1.529301	0.345592	1888.969360
1726.405015	1.511979	0.345592	3308.717285
1726.406087	1.465543	0.345592	4879.779297
1726.407029	1.425824	0.345592	6222.905273
1726.407892	1.390042	0.345592	7422.511230
1726.408952	1.349758	0.345592	8853.254883
1726.409974	1.312086	0.345592	10194.207031
1726.410852	1.280735	0.345592	11318.692383
1726.411812	0.809927	0.345592	12096.221680
1726.412868	0.094849	0.345592	12196.381836
1726.413783	0.089861	0.345592	12278.604492
1726.414655	0.089912	0.345592	12357.007812
1726.415723	0.089971	0.345592	12453.096680
1726.416715	0.089886	0.345592	12542.263672
1726.417613	0.089905	0.345592	12622.998047
1726.418597	0.089982	0.345592	12711.540039
1726.419651	0.089963	0.345592	12806.361328
1726.420564	0.089894	0.345592	12888.434570
1726.421424	0.089894	0.345592	12965.743164
1727.486362	1.129783	0.314022	569.410522
1727.487245	1.529916	0.314022	1920.326172
1727.488123	1.513564	0.314022	3249.235840
1727.489028	1.472922	0.314022	4582.230469
1727.490080	1.429512	0.314022	6086.077148
1727.490970	1.392810	0.314022	7325.677734
1727.491837	1.357266	0.314022	8502.426758
1727.492941	1.318238	0.314022	9957.761719
1727.493861	1.285627	0.314022	11140.539062
1727.494733	1.086233	0.314022	12087.734375
1727.495776	0.122014	0.314022	12214.995117
1727.496751	0.089784	0.314022	12302.534180
1727.497627	0.089883	0.314022	12381.271484
1727.498484	0.089879	0.314022	12458.297852
1727.499585	0.089938	0.314022	12557.319336
1727.500480	0.089883	0.314022	12637.764648
1727.501356	0.089839	0.314022	12716.463867
1727.502357	0.090037	0.314022	12806.590820
1727.503353	0.089901	0.314022	12896.132812
1727.504231	0.090022	0.314022	12975.171875
1728.438975	1.177548	0.351937	657.071533
1728.439957	1.532450	0.351937	2161.937500
1728.440889	1.504874	0.351937	3564.480225
1728.441758	1.465074	0.351937	4837.629883
1728.442882	1.420463	0.351937	6434.229980
1728.443781	1.383296	0.351937	7677.812988
1728.444665	1.348074	0.351937	8869.509766
1728.445767	1.309047	0.351937	10312.079102
1728.446719	1.275601	0.351937	11526.451172
1728.447587	0.755369	0.351937	12182.111328
1728.448626	0.094259	0.351937	12280.046875
1728.449644	0.089978	0.351937	12371.644531
1728.450524	0.089989	0.351937	12450.834961
1728.451441	0.090022	0.351937	12533.384766
1728.452520	0.090051	0.351937	12630.549805
1728.453466	0.089941	0.351937	12715.634766
1728.454324	0.089952	0.351937	12792.813477
1728.455351	0.090066	0.351937	12885.311523
1728.456375	0.089919	0.351937	12977.388672
1728.457273	0.089985	0.351937	13058.195312
1729.521564	1.117145	0.321321	585.383911
1729.522626	1.531457	0.321321	2211.791748
1729.523551	1.503428	0.321321	3602.462402
1729.524427	1.463456	0.321321	4884.449707
1729.525522	1.418983	0.321321	6438.236328
1729.526513	1.378667	0.321321	7804.495117
1729.527408	1.344756	0.321321	9008.051758
1729.528389	1.309237	0.321321	10292.413086
1729.529447	1.272609	0.321321	11638.833008
1729.530347	0.580785	0.321321	12161.539062
1729.531221	0.092494	0.321321	12242.378906
1729.532092	0.089916	0.321321	12320.695312
1729.533146	0.089897	0.321321	12415.447266
1729.534028	0.089974	0.321321	12494.804687
1729.534899	0.089971	0.321321	12573.168945
1729.535912	0.089993	0.321321	12664.331055
1729.536824	0.089905	0.321321	12746.324219
1729.537731	0.089883	0.321321	12827.847656
1729.538604	0.089960	0.321321	12906.382812
1729.539628	0.089897	0.321321	12998.437500
1730.474679	1.048268	0.348835	440.272491
1730.475658	1.525258	0.348835	1933.499634
1730.476602	1.510203	0.348835	3359.130859
1730.477523	1.470330	0.348835	4713.304199
1730.478405	1.432566	0.348835	5976.827148
1730.479439	1.391140	0.348835	7415.266113
1730.480334	1.355706	0.348835	8628.623047
1730.481215	1.322732	0.348835	9793.950195
1730.482147	1.289916	0.348835	10996.151367
1730.483156	1.068805	0.348835	12074.575195
1730.484038	0.146155	0.348835	12203.483398
1730.484907	0.089832	0.348835	12281.546875
1730.486010	0.089864	0.348835	12380.666992
1730.486885	0.089868	0.348835	12459.301758
1730.487747	0.089938	0.348835	12536.828125
1730.488808	0.090044	0.348835	12632.365234
1730.489786	0.089908	0.348835	12720.295898
1730.490665	0.089883	0.348835	12799.302734
1730.491523	0.089949	0.348835	12876.478516
1730.492633	0.089985	0.348835	12976.362305
1731.555493	1.150660	0.318292	593.740784
1731.556446	1.532201	0.318292	2053.928223
1731.557312	1.510561	0.318292	3362.074463
1731.558351	1.465371	0.318292	4884.595215
1731.559375	1.422349	0.318292	6341.080078
1731.560261	1.386138	0.318292	7569.198242
1731.561203	1.350070	0.318292	8840.963867
1731.562256	1.311163	0.318292	10221.619141
1731.563198	1.278113	0.318292	11425.601562
1731.564065	0.841106	0.318292	12154.840820
1731.565107	0.096211	0.318292	12255.092773
1731.566135	0.089868	0.318292	12347.477539
1731.567007	0.089890	0.318292	12425.861328
1731.567962	0.089963	0.318292	12511.776367
1731.569011	0.089916	0.318292	12606.097656
1731.569935	0.089879	0.318292	12689.145508
1731.570802	0.089894	0.318292	12767.083008
1731.571869	0.089908	0.318292	12863.015625
1731.572866	0.089850	0.318292	12952.595703
1731.573757	0.089919	0.318292	13032.713867
1732.509662	1.087163	0.351546	491.397705
1732.510529	1.527096	0.351546	1815.389893
1732.511562	1.509686	0.351546	3374.895752
1732.512584	1.465551	0.351546	4872.688477
1732.513467	1.427812	0.351546	6133.446777
1732.514400	1.389910	0.351546	7430.232422
1732.515464	1.348733	0.351546	8865.284180
1732.516410	1.313980	0.351546	10108.308594
1732.517276	1.282972	0.351546	11219.363281
1732.518341	0.792363	0.351546	12063.230469
1732.519368	0.094453	0.351546	12160.233398
1732.520239	0.089854	0.351546	12238.496094
1732.521203	0.089960	0.351546	12325.216797
1732.522258	0.089857	0.351546	12420.016602
1732.523178	0.089875	0.351546	12502.702148
1732.524044	0.089938	0.351546	12580.587891
1732.525116	0.089908	0.351546	12676.969727
1732.526118	0.089854	0.351546	12767.002930
1732.527003	0.089912	0.351546	12846.575195
1732.527881	0.089930	0.351546	12925.534180
1733.589231	1.111095	0.324270	526.658997
1733.590108	1.528850	0.324270	1867.460449
1733.591062	1.511895	0.324270	3309.807861
1733.592118	1.465909	0.324270	4857.808105
1733.593047	1.426505	0.324270	6183.031250
1733.593917	1.390360	0.324270	7392.644531
1733.595005	1.349191	0.324270	8860.564453
1733.596003	1.312207	0.324270	10170.146484
1733.596902	1.280610	0.324270	11321.415039
1733.597876	0.800830	0.324270	12101.423828
1733.598931	0.094365	0.324270	12200.979492
1733.599843	0.089817	0.324270	12282.892578
1733.600703	0.089963	0.324270	12360.260742
1733.601801	0.089875	0.324270	12458.944336
1733.602796	0.089832	0.324270	12548.327148
1733.603677	0.089901	0.324270	12627.530273
1733.604677	0.089960	0.324270	12717.490234
1733.605724	0.089960	0.324270	12811.677734
1733.606604	0.090018	0.324270	12890.893555
1733.607468	0.089949	0.324270	12968.609375
1734.547130	1.060979	0.354096	449.855103
1734.548207	1.530198	0.354096	2097.877930
1734.549219	1.502966	0.354096	3618.879883
1734.550114	1.463672	0.354096	4928.866211
1734.551099	1.423019	0.354096	6330.539551
1734.552150	1.380395	0.354096	7781.334961
1734.553058	1.345159	0.354096	9002.739258
1734.553923	1.312372	0.354096	10137.941406
1734.555012	1.275333	0.354096	11526.779297
1734.556017	0.583799	0.354096	12113.497070
1734.556897	0.092589	0.354096	12194.975586
1734.557888	0.089985	0.354096	12284.151367
1734.558940	0.089886	0.354096	12378.711914
1734.559822	0.089864	0.354096	12457.972656
1734.560678	0.089912	0.354096	12534.937500
1734.561784	0.089941	0.354096	12634.413086
1734.562745	0.089850	0.354096	12720.758789
1734.563617	0.089784	0.354096	12799.050781
1734.564637	0.089993	0.354096	12890.843750
1734.565676	0.089941	0.354096	12984.292969
1735.623108	1.060206	0.325052	454.828491
1735.624012	1.524913	0.325052	1833.350098
1735.625080	1.507756	0.325052	3443.633789
1735.626044	1.465895	0.325052	4856.756348
1735.626908	1.428952	0.325052	6091.370605
1735.627950	1.387123	0.325052	7536.752441
1735.628976	1.347499	0.325052	8919.286133
1735.629866	1.314617	0.325052	10089.294922
1735.630798	1.281376	0.325052	11283.537109
1735.631875	0.721121	0.325052	12060.183594
1735.632799	0.094416	0.325052	12147.424805
1735.633666	0.089916	0.325052	12225.381836
1735.634704	0.089941	0.325052	12318.741211
1735.635716	0.089875	0.325052	12409.695312
1735.636608	0.089861	0.325052	12489.851562
1735.637564	0.089949	0.325052	12575.842773
1735.638616	0.090037	0.325052	12670.561523
1735.639538	0.089843	0.325052	12753.396484
1735.640400	0.089949	0.325052	12830.932617
1735.641479	0.090044	0.325052	12928.089844
1736.582492	1.101749	0.352456	495.787170
1736.583370	1.527605	0.352456	1837.024414
1736.584382	1.510148	0.352456	3365.293945
1736.585439	1.464829	0.352456	4913.618164
1736.586331	1.426545	0.352456	6186.096680
1736.587223	1.389217	0.352456	7425.278809
1736.588308	1.348334	0.352456	8888.220703
1736.589269	1.313159	0.352456	10150.166992
1736.590135	1.282379	0.352456	11260.707031
1736.591191	0.770156	0.352456	12073.992187
1736.592224	0.093798	0.352456	12170.884766
1736.593098	0.089938	0.352456	12249.490234
1736.594037	0.090004	0.352456	12334.003906
1736.595100	0.089934	0.352456	12429.603516
1736.596038	0.089897	0.352456	12513.927734
1736.596906	0.089905	0.352456	12591.964844
1736.597956	0.090011	0.352456	12686.476562
1736.598956	0.089978	0.352456	12776.455078
1736.599854	0.089993	0.352456	12857.268555
1736.600806	0.090088	0.352456	12943.032227
1737.657149	1.054999	0.322051	446.264465
1737.658034	1.524598	0.322051	1795.533936
1737.659056	1.510675	0.322051	3339.443848
1737.659970	1.470278	0.322051	4683.278320
1737.660869	1.432632	0.322051	5971.214355
1737.661886	1.391799	0.322051	7386.674316
1737.662814	1.354929	0.322051	8644.048828
1737.663703	1.322011	0.322051	9819.316406
1737.664719	1.286576	0.322051	11126.477539
1737.665693	0.965706	0.322051	12067.075195
1737.666621	0.116356	0.322051	12175.053711
1737.667488	0.089850	0.322051	12252.953125
1737.668571	0.089978	0.322051	12350.399414
1737.669464	0.089875	0.322051	12430.658203
1737.670340	0.089846	0.322051	12509.363281
1737.671356	0.089989	0.322051	12600.791992
1737.672341	0.089846	0.322051	12689.290039
1737.673221	0.089897	0.322051	12768.399414
1737.674087	0.089989	0.322051	12846.330078
1737.675204	0.089952	0.322051	12946.806641
1738.618640	1.127377	0.353407	564.815735
1738.619527	1.529982	0.353407	1921.909424
1738.620463	1.510400	0.353407	3335.644043
1738.621543	1.463800	0.353407	4916.547852
1738.622473	1.424443	0.353407	6241.280273
1738.623345	1.388694	0.353407	7452.221191
1738.624387	1.348308	0.353407	8857.158203
1738.625413	1.310951	0.353407	10202.194336
1738.626307	1.279578	0.353407	11346.136719
1738.627272	0.780099	0.353407	12098.931641
1738.628327	0.093951	0.353407	12198.050781
1738.629255	0.089886	0.353407	12281.465820
1738.630119	0.090026	0.353407	12359.248047
1738.631178	0.089974	0.353407	12454.531250
1738.632180	0.089861	0.353407	12544.572266
1738.633069	0.089934	0.353407	12624.523437
1738.634043	0.090018	0.353407	12712.201172
1738.635081	0.089974	0.353407	12805.594727
1738.635989	0.089894	0.353407	12887.218750
1738.636849	0.089996	0.353407	12964.615234
1739.689665	1.060111	0.328294	452.667419
1739.690691	1.526671	0.328294	2019.031982
1739.691737	1.504281	0.328294	3592.510010
1739.692635	1.464456	0.328294	4907.591309
1739.693498	1.425542	0.328294	6137.833984
1739.694612	1.382351	0.328294	7677.772949
1739.695581	1.345422	0.328294	8981.487305
1739.696455	1.313335	0.328294	10129.341797
1739.697480	1.277161	0.328294	11438.431641
1739.698533	0.598081	0.328294	12068.210937
1739.699424	0.092296	0.328294	12150.447266
1739.700356	0.089952	0.328294	12234.283203
1739.701424	0.089989	0.328294	12330.391602
1739.702359	0.089945	0.328294	12414.490234
1739.703280	0.089985	0.328294	12497.367187
1739.704143	0.089960	0.328294	12575.001953
1739.705170	0.089875	0.328294	12667.303711
1739.706056	0.089938	0.328294	12746.988281
1739.706934	0.089952	0.328294	12825.966797
1739.707833	0.089974	0.328294	12906.853516
1740.654462	1.088221	0.360892	535.404968
1740.655457	1.532014	0.360892	2059.759033
1740.656371	1.507251	0.360892	3437.386230
1740.657265	1.468561	0.360892	4750.279297
1740.658288	1.426567	0.360892	6209.657715
1740.659216	1.388236	0.360892	7497.940918
1740.660080	1.354233	0.360892	8667.998047
1740.661111	1.316664	0.360892	10025.478516
1740.662073	1.281702	0.360892	11258.475586
1740.663003	0.926514	0.360892	12120.132812
1740.663862	0.114540	0.360892	12218.522461
1740.664951	0.089916	0.360892	12316.440430
1740.665849	0.090004	0.360892	12397.263672
1740.666726	0.089989	0.360892	12476.183594
1740.667705	0.090051	0.360892	12564.343750
1740.668698	0.089945	0.360892	12653.659180
1740.669593	0.089967	0.360892	12734.179687
1740.670455	0.089960	0.360892	12811.724609
1740.671556	0.089923	0.360892	12910.729492
1740.672471	0.089934	0.360892	12993.019531
1741.724562	1.126575	0.323722	571.173401
1741.725497	1.531491	0.323722	2003.117187
1741.726362	1.511418	0.323722	3310.494141
1741.727407	1.466228	0.323722	4842.702148
1741.728436	1.422975	0.323722	6306.943359
1741.729333	1.386416	0.323722	7550.558594
1741.730309	1.349334	0.323722	8867.507812
1741.731369	1.310273	0.323722	10256.397461
1741.732291	1.277758	0.323722	11434.490234
1741.733158	0.817657	0.323722	12143.399414
1741.734233	0.094969	0.323722	12245.491211
1741.735227	0.089835	0.323722	12334.787109
1741.736100	0.089897	0.323722	12413.267578
1741.737070	0.089963	0.323722	12500.532227
1741.738135	0.089930	0.323722	12596.308594
1741.739031	0.089952	0.323722	12676.906250
1741.739905	0.089934	0.323722	12755.508789
1741.740990	0.089945	0.323722	12853.099609
1741.741954	0.089912	0.323722	12939.774414
1741.742840	0.089905	0.323722	13019.429687
1742.689721	1.060624	0.357814	447.583221
1742.690811	1.530150	0.357814	2115.446777
1742.691802	1.503102	0.357814	3605.020508
1742.692703	1.463807	0.357814	4923.911133
1742.693707	1.422100	0.357814	6351.699219
1742.694756	1.380168	0.357814	7799.496094
1742.695649	1.345093	0.357814	9000.664062
1742.696511	1.311844	0.357814	10131.473633
1742.697627	1.274736	0.357814	11554.079102
1742.698603	0.591976	0.357814	12131.847656
1742.699464	0.092904	0.357814	12211.837891
1742.700531	0.089945	0.357814	12307.809570
1742.701554	0.089952	0.357814	12399.831055
1742.702439	0.089938	0.357814	12479.425781
1742.703350	0.089843	0.357814	12561.272461
1742.704448	0.089952	0.357814	12660.040039
1742.705383	0.089894	0.357814	12744.090820
1742.706256	0.089996	0.357814	12822.657227
1742.707288	0.090029	0.357814	12915.567383
1742.708302	0.089879	0.357814	13006.705078
1743.757726	1.133086	0.326760	577.873840
1743.758657	1.531362	0.326760	2003.572021
1743.759531	1.511364	0.326760	3324.503906
1743.760505	1.469678	0.326760	4755.969727
1743.761524	1.426175	0.326760	6209.242676
1743.762411	1.389423	0.326760	7441.660645
1743.763283	1.355182	0.326760	8623.378906
1743.764325	1.316924	0.326760	9995.613281
1743.765280	1.283379	0.326760	11221.240234
1743.766155	1.007787	0.326760	12103.053711
1743.767193	0.109541	0.326760	12216.756836
1743.768209	0.089810	0.326760	12308.002930
1743.769108	0.090004	0.326760	12388.916016
1743.770058	0.090000	0.326760	12474.416016
1743.771105	0.089941	0.326760	12568.584961
1743.772038	0.089978	0.326760	12652.534180
1743.772899	0.089916	0.326760	12729.951172
1743.773964	0.090048	0.326760	12825.851562
1743.774952	0.089923	0.326760	12914.695312
1743.775838	0.089912	0.326760	12994.357422
1744.725947	1.051088	0.357000	445.661163
1744.726974	1.527956	0.357000	2014.872437
1744.728010	1.504369	0.357000	3573.398437
1744.728895	1.465254	0.357000	4870.148437
1744.729826	1.425941	0.357000	6197.699707
1744.730893	1.383186	0.357000	7673.559082
1744.731836	1.346726	0.357000	8943.521484
1744.732701	1.314423	0.357000	10080.497070
1744.733728	1.278373	0.357000	11393.385742
1744.734756	0.660007	0.357000	12071.873047
1744.735648	0.093900	0.357000	12155.631836
1744.736602	0.089952	0.357000	12241.446289
1744.737653	0.089956	0.357000	12335.990234
1744.738584	0.089941	0.357000	12419.725586
1744.739448	0.089982	0.357000	12497.469727
1744.740501	0.090062	0.357000	12592.305664
1744.741506	0.089897	0.357000	12682.652344
1744.742401	0.089905	0.357000	12763.117187
1744.743376	0.089989	0.357000	12850.856445
1744.744423	0.089967	0.357000	12945.051758
1745.791353	1.120496	0.329225	537.837891
1745.792241	1.529550	0.329225	1896.077881
1745.793216	1.510605	0.329225	3368.918213
1745.794266	1.464719	0.329225	4906.873047
1745.795191	1.425410	0.329225	6225.377441
1745.796056	1.389265	0.329225	7427.091797
1745.797122	1.348909	0.329225	8865.028320
1745.798123	1.312082	0.329225	10178.422852
1745.799014	1.280823	0.329225	11319.635742
1745.800015	0.774382	0.329225	12094.791992
1745.801067	0.094098	0.329225	12193.783203
1745.801964	0.089813	0.329225	12274.345703
1745.802820	0.089985	0.329225	12351.373047
1745.803908	0.090026	0.329225	12449.321289
1745.804898	0.089945	0.329225	12538.367187
1745.805770	0.090000	0.329225	12616.847656
1745.806753	0.090066	0.329225	12705.382812
1745.807822	0.089930	0.329225	12801.518555
1745.808721	0.089934	0.329225	12882.369141
1745.809593	0.089967	0.329225	12960.820312
1746.762437	1.064766	0.359123	458.914001
1746.763329	1.525100	0.359123	1819.303223
1746.764418	1.507958	0.359123	3461.469238
1746.765309	1.468579	0.359123	4769.973145
1746.766173	1.431731	0.359123	6006.988770
1746.767222	1.389243	0.359123	7464.304687
1746.768194	1.351641	0.359123	8778.099609
1746.769056	1.319308	0.359123	9915.342773
1746.770095	1.282361	0.359123	11247.715820
1746.771156	0.780992	0.359123	12076.348633
1746.772035	0.098610	0.359123	12163.026367
1746.772978	0.089927	0.359123	12247.827148
1746.774034	0.090055	0.359123	12342.924805
1746.774976	0.089952	0.359123	12427.660156
1746.775848	0.089945	0.359123	12506.091797
1746.776886	0.089971	0.359123	12599.481445
1746.777904	0.089912	0.359123	12691.011719
1746.778797	0.089919	0.359123	12771.309570
1746.779758	0.089982	0.359123	12857.782227
1746.780809	0.089978	0.359123	12952.349609
1747.825717	1.049561	0.331694	439.765869
1747.826759	1.529513	0.331694	2033.518433
1747.827788	1.503984	0.331694	3581.118164
1747.828687	1.464441	0.331694	4897.650391
1747.829653	1.424506	0.331694	6273.722656
1747.830718	1.381176	0.331694	7744.674805
1747.831650	1.345089	0.331694	8998.297852
1747.832516	1.312749	0.331694	10135.138672
1747.833590	1.275754	0.331694	11505.298828
1747.834591	0.590391	0.331694	12096.280273
1747.835477	0.092758	0.331694	12178.463867
1747.836476	0.090000	0.331694	12268.374023
1747.837521	0.090011	0.331694	12362.435547
1747.838424	0.089982	0.331694	12443.689453
1747.839280	0.089985	0.331694	12520.716797
1747.840369	0.090040	0.331694	12618.770508
1747.841355	0.089930	0.331694	12707.441406
1747.842228	0.089923	0.331694	12785.944336
1747.843219	0.090004	0.331694	12875.137695
1747.844283	0.090015	0.331694	12970.913086
1748.797797	1.105052	0.358632	512.744324
1748.798676	1.527997	0.358632	1855.853516
1748.799668	1.510825	0.358632	3354.592041
1748.800713	1.465422	0.358632	4885.958496
1748.801623	1.426611	0.358632	6184.174805
1748.802485	1.390188	0.358632	7382.516602
1748.803572	1.349348	0.358632	8849.257812
1748.804561	1.312928	0.358632	10147.744141
1748.805440	1.281522	0.358632	11274.202148
1748.806322	0.968284	0.358632	12128.228516
1748.807336	0.113928	0.358632	12243.751953
1748.808262	0.089821	0.358632	12326.925781
1748.809185	0.089952	0.358632	12409.952148
1748.810049	0.089930	0.358632	12487.652344
1748.811087	0.089927	0.358632	12580.996094
1748.811974	0.089872	0.358632	12660.712891
1748.812851	0.089901	0.358632	12739.556641
1748.813831	0.089989	0.358632	12827.746094
1748.814781	0.089788	0.358632	12913.043945
1748.815661	0.089864	0.358632	12992.125000
1749.859130	1.075349	0.327843	457.023376
1749.860248	1.530927	0.327843	2168.599365
1749.861223	1.502930	0.327843	3633.955811
1749.862096	1.464291	0.327843	4912.281738
1749.863162	1.419994	0.327843	6425.995117
1749.864198	1.378271	0.327843	7853.884277
1749.865098	1.343415	0.327843	9062.958008
1749.866027	1.309709	0.327843	10279.677734
1749.867083	1.272990	0.327843	11623.955078
1749.868023	0.579170	0.327843	12168.375000
1749.868885	0.092853	0.327843	12248.414062
1749.869940	0.090059	0.327843	12343.425781
1749.870950	0.089938	0.327843	12434.262695
1749.871831	0.090018	0.327843	12513.568359
1749.872780	0.089967	0.327843	12598.947266
1749.873832	0.089901	0.327843	12693.523437
1749.874744	0.089927	0.327843	12775.537109
1749.875613	0.089978	0.327843	12853.727539
1749.876657	0.090022	0.327843	12947.710937
1749.877672	0.089934	0.327843	13038.994141
1750.832810	1.133027	0.354765	607.302612
1750.833870	1.531249	0.354765	2230.426270
1750.834791	1.502571	0.354765	3614.293945
1750.835659	1.462936	0.354765	4884.122070
1750.836761	1.418133	0.354765	6446.905273
1750.837732	1.378821	0.354765	7785.740234
1750.838620	1.345023	0.354765	8980.121094
1750.839624	1.308779	0.354765	10294.135742
1750.840673	1.272389	0.354765	11628.872070
1750.841573	0.581587	0.354765	12152.300781
1750.842460	0.093036	0.354765	12234.823242
1750.843543	0.090022	0.354765	12332.317383
1750.844498	0.089938	0.354765	12418.208008
1750.845357	0.089908	0.354765	12495.439453
1750.846384	0.090044	0.354765	12587.915039
1750.847412	0.090022	0.354765	12680.458008
1750.848288	0.089967	0.354765	12759.269531
1750.849156	0.089949	0.354765	12837.344727
1750.850068	0.090040	0.354765	12919.461914
1750.851076	0.089941	0.354765	13010.123047
1751.894237	1.096773	0.329793	494.644409
1751.895122	1.527971	0.329793	1846.898926
1751.896141	1.509745	0.329793	3385.329102
1751.897205	1.464126	0.329793	4943.159180
1751.898098	1.425417	0.329793	6216.056641
1751.898967	1.388152	0.329793	7422.360352
1751.900060	1.347385	0.329793	8895.052734
1751.901032	1.311969	0.329793	10170.287109
1751.901911	1.281094	0.329793	11296.368164
1751.902935	0.754581	0.329793	12069.059570
1751.903975	0.093285	0.329793	12166.076172
1751.904867	0.089963	0.329793	12246.323242
1751.905793	0.090033	0.329793	12329.693359
1751.906849	0.089996	0.329793	12424.729492
1751.907795	0.090018	0.329793	12509.886719
1751.908666	0.089993	0.329793	12588.270508
1751.909718	0.090070	0.329793	12683.023437
1751.910733	0.089985	0.329793	12774.358398
1751.911626	0.089967	0.329793	12854.699219
1751.912572	0.090073	0.329793	12939.908203
1752.867660	1.063473	0.357174	466.864594
1752.868525	1.525920	0.357174	1786.785767
1752.869564	1.510151	0.357174	3355.833008
1752.870598	1.465448	0.357174	4871.106445
1752.871486	1.427468	0.357174	6138.698242
1752.872430	1.389071	0.357174	7449.981445
1752.873513	1.347448	0.357174	8909.267578
1752.874443	1.312907	0.357174	10130.270508
1752.875315	1.281676	0.357174	11247.891602
1752.876370	0.757694	0.357174	12047.258789
1752.877383	0.093270	0.357174	12141.741211
1752.878272	0.089894	0.357174	12221.657227
1752.879239	0.090040	0.357174	12308.726562
1752.880292	0.089952	0.357174	12403.446289
1752.881217	0.089985	0.357174	12486.682617
1752.882080	0.090007	0.357174	12564.359375
1752.883162	0.090040	0.357174	12661.783203
1752.884154	0.089908	0.357174	12750.972656
1752.885049	0.089960	0.357174	12831.486328
1752.886037	0.090011	0.357174	12920.416992
1753.928667	1.081542	0.332141	485.612244
1753.929534	1.526257	0.332141	1808.877441
1753.930586	1.509481	0.332141	3396.851562
1753.931468	1.470117	0.332141	4693.495117
1753.932355	1.432482	0.332141	5964.106445
1753.933330	1.393352	0.332141	7322.625000
1753.934278	1.355914	0.332141	8608.032227
1753.935160	1.323072	0.332141	9774.982422
1753.936106	1.289821	0.332141	10995.152344
1753.937144	1.030214	0.332141	12064.513672
1753.938048	0.129236	0.332141	12181.342773
1753.938909	0.089938	0.332141	12258.779297
1753.939975	0.090011	0.332141	12354.731445
1753.940921	0.089916	0.332141	12439.791992
1753.941793	0.089941	0.332141	12518.220703
1753.942717	0.089934	0.332141	12601.319336
1753.943767	0.090022	0.332141	12695.842773
1753.944662	0.089971	0.332141	12776.366211
1753.945521	0.089941	0.332141	12853.625977
1753.946538	0.089989	0.332141	12945.144531
1754.902599	1.183535	0.356992	660.412659
1754.903648	1.531523	0.356992	2266.980713
1754.904543	1.503091	0.356992	3612.247070
1754.905459	1.462709	0.356992	4952.088379
1754.906533	1.417786	0.356992	6474.790039
1754.907496	1.379268	0.356992	7803.024414
1754.908367	1.345320	0.356992	8974.797852
1754.909429	1.307124	0.356992	10362.963867
1754.910444	1.271682	0.356992	11653.720703
1754.911342	0.600048	0.356992	12192.563477
1754.912313	0.093226	0.356992	12283.085937
1754.913353	0.090004	0.356992	12376.689453
1754.914274	0.089930	0.356992	12459.515625
1754.915134	0.090004	0.356992	12536.918945
1754.916198	0.090044	0.356992	12632.725586
1754.917199	0.089949	0.356992	12722.764648
1754.918069	0.089967	0.356992	12801.036133
1754.919046	0.090059	0.356992	12889.023437
1754.920104	0.089934	0.356992	12984.173828
1754.921010	0.089938	0.356992	13065.657227
1755.964107	1.062492	0.326703	464.308807
1755.964967	1.525587	0.326703	1776.313843
1755.966011	1.509737	0.326703	3352.479736
1755.967034	1.465100	0.326703	4851.277344
1755.967928	1.427421	0.326703	6127.391602
1755.968913	1.388177	0.326703	7494.746094
1755.969960	1.347345	0.326703	8905.416016
1755.970871	1.313254	0.326703	10101.791016
1755.971802	1.281112	0.326703	11294.505859
1755.972673	0.922588	0.326703	12098.080078
1755.973732	0.097731	0.326703	12201.577148
1755.974621	0.089795	0.326703	12281.405273
1755.975500	0.089912	0.326703	12360.438477
1755.976487	0.089941	0.326703	12449.210937
1755.977452	0.089912	0.326703	12535.976562
1755.978376	0.090004	0.326703	12619.139648
1755.979239	0.089967	0.326703	12696.781250
1755.980272	0.089905	0.326703	12789.653320
1755.981152	0.089930	0.326703	12868.791992
1755.982028	0.089952	0.326703	12947.589844
1756.936345	1.134020	0.355614	574.947998
1756.937284	1.531209	0.355614	2012.752808
1756.938164	1.510444	0.355614	3341.943848
1756.939108	1.469337	0.355614	4728.998047
1756.940155	1.425322	0.355614	6221.310547
1756.941051	1.388503	0.355614	7465.409668
1756.941993	1.352120	0.355614	8739.107422
1756.943058	1.312775	0.355614	10137.212891
1756.944012	1.279585	0.355614	11357.936523
1756.944882	0.891032	0.355614	12133.133789
1756.945950	0.097394	0.355614	12237.150391
1756.946955	0.089960	0.355614	12327.559570
1756.947838	0.089945	0.355614	12406.981445
1756.948814	0.090011	0.355614	12494.832031
1756.949859	0.089916	0.355614	12588.793945
1756.950778	0.089908	0.355614	12671.419922
1756.951635	0.089974	0.355614	12748.528320
1756.952714	0.090029	0.355614	12845.669922
1756.953714	0.089978	0.355614	12935.648437
1756.954588	0.089956	0.355614	13014.270508
1757.999763	1.131086	0.330550	575.723022
1758.000667	1.530612	0.330550	1959.395874
1758.001537	1.511451	0.330550	3274.358643
1758.002596	1.465990	0.330550	4826.841797
1758.003597	1.423630	0.330550	6251.895508
1758.004495	1.387540	0.330550	7497.906738
1758.005469	1.349930	0.330550	8812.739258
1758.006525	1.311500	0.330550	10197.683594
1758.007429	1.279548	0.330550	11354.395508
1758.008299	0.854008	0.330550	12097.381836
1758.009398	0.095449	0.330550	12202.280273
1758.010377	0.089996	0.330550	12290.386719
1758.011243	0.089938	0.330550	12368.272461
1758.012379	0.089996	0.330550	12470.507812
1758.013404	0.089956	0.330550	12562.712891
1758.014296	0.090066	0.330550	12643.051758
1758.015230	0.089996	0.330550	12727.108398
1758.016286	0.089989	0.330550	12822.136719
1758.017224	0.090022	0.330550	12906.577148
1758.018087	0.090029	0.330550	12984.272461
1758.971933	1.119708	0.355989	585.607422
1758.973004	1.531073	0.355989	2225.386719
1758.973918	1.502776	0.355989	3598.923828
1758.974793	1.462980	0.355989	4879.031250
1758.975897	1.418013	0.355989	6444.517578
1758.976894	1.377616	0.355989	7818.000488
1758.977800	1.343405	0.355989	9035.125000
1758.978807	1.306787	0.355989	10351.059570
1758.979866	1.270426	0.355989	11696.440430
1758.980765	0.506997	0.355989	12152.230469
1758.981656	0.091791	0.355989	12234.015625
1758.982748	0.090099	0.355989	12332.403320
1758.983709	0.089985	0.355989	12418.878906
1758.984626	0.089993	0.355989	12501.402344
1758.985492	0.090055	0.355989	12579.389648
1758.986524	0.090088	0.355989	12672.360352
1758.987409	0.090033	0.355989	12752.039062
1758.988283	0.090040	0.355989	12830.734375
1758.989159	0.089993	0.355989	12909.568359
1758.990191	0.089967	0.355989	13002.414062
1760.033381	1.101848	0.330216	510.155670
1760.034274	1.528030	0.330216	1874.686279
1760.035138	1.513553	0.330216	3182.396484
1760.036199	1.468696	0.330216	4740.683105
1760.037115	1.429728	0.330216	6050.313477
1760.038007	1.393656	0.330216	7293.454590
1760.038985	1.356061	0.330216	8619.681641
1760.039999	1.317766	0.330216	9955.896484
1760.040895	1.286305	0.330216	11108.425781
1760.041865	0.977095	0.330216	12056.208008
1760.042917	0.106663	0.330216	12168.416992
1760.043831	0.089850	0.330216	12250.540039
1760.044691	0.089967	0.330216	12327.912109
1760.045767	0.090007	0.330216	12424.759766
1760.046752	0.089952	0.330216	12513.363281
1760.047649	0.089945	0.330216	12594.043945
1760.048651	0.090033	0.330216	12684.256836
1760.049691	0.089897	0.330216	12777.750000
1760.050592	0.089941	0.330216	12858.787109
1760.051449	0.089985	0.330216	12935.904297
1761.005449	1.123487	0.360110	553.879333
1761.006467	1.531373	0.360110	2112.817383
1761.007363	1.506691	0.360110	3462.812012
1761.008330	1.465009	0.360110	4879.475586
1761.009393	1.419913	0.360110	6388.843262
1761.010331	1.381985	0.360110	7685.145020
1761.011198	1.347975	0.360110	8853.838867
1761.012276	1.309157	0.360110	10265.109375
1761.013279	1.273883	0.360110	11542.814453
1761.014180	0.674897	0.360110	12150.897461
1761.015164	0.094292	0.360110	12243.680664
1761.016219	0.090048	0.360110	12338.680664
1761.017125	0.089861	0.360110	12420.094727
1761.017986	0.089886	0.360110	12497.487305
1761.019080	0.090026	0.360110	12595.975586
1761.020043	0.089934	0.360110	12682.582031
1761.020917	0.090033	0.360110	12761.270508
1761.021923	0.090018	0.360110	12851.829102
1761.022976	0.090000	0.360110	12946.598633
1761.023859	0.089960	0.360110	13026.033203
1762.068409	1.050395	0.327626	444.317291
1762.069410	1.528143	0.327626	1973.988647
1762.070336	1.508921	0.327626	3371.249268
1762.071262	1.469176	0.327626	4731.706055
1762.072126	1.431043	0.327626	5968.126953
1762.073177	1.389745	0.327626	7428.749023
1762.074065	1.355065	0.327626	8632.046875
1762.074946	1.322479	0.327626	9797.151367
1762.075949	1.287759	0.327626	11088.773437
1762.076888	1.042083	0.327626	12067.289062
1762.077821	0.134506	0.327626	12192.783203
1762.078679	0.089938	0.327626	12269.950195
1762.079726	0.089901	0.327626	12364.077148
1762.080606	0.089978	0.327626	12443.257812
1762.081471	0.090007	0.327626	12521.114258
1762.082515	0.090000	0.327626	12615.074219
1762.083462	0.089952	0.327626	12700.258789
1762.084341	0.089927	0.327626	12779.304687
1762.085266	0.089989	0.327626	12862.544922
1762.086319	0.089967	0.327626	12957.280273
1763.040080	1.066692	0.358108	470.411102
1763.040941	1.525734	0.358108	1784.067871
1763.041975	1.509569	0.358108	3344.962402
1763.043001	1.465052	0.358108	4848.106445
1763.043894	1.427366	0.358108	6122.744141
1763.044856	1.388514	0.358108	7458.495117
1763.045920	1.347330	0.358108	8892.054687
1763.046847	1.313346	0.358108	10109.526367
1763.047717	1.281566	0.358108	11224.489258
1763.048809	0.740493	0.358108	12033.107422
1763.049802	0.092963	0.358108	12125.418945
1763.050699	0.089886	0.358108	12206.046875
1763.051686	0.090055	0.358108	12294.930664
1763.052739	0.089971	0.358108	12389.669922
1763.053634	0.089982	0.358108	12470.203125
1763.054495	0.089971	0.358108	12547.667969
1763.055583	0.090000	0.358108	12645.587891
1763.056565	0.089912	0.358108	12733.881836
1763.057425	0.090026	0.358108	12811.303711
1763.058492	0.090022	0.358108	12907.357422
1764.104251	1.059478	0.324057	446.040070
1764.105336	1.529531	0.324057	2105.581543
1764.106341	1.502699	0.324057	3615.793945
1764.107223	1.464016	0.324057	4907.056152
1764.108235	1.422429	0.324057	6346.554687
1764.109288	1.379868	0.324057	7799.555664
1764.110188	1.344653	0.324057	9009.743164
1764.111053	1.311299	0.324057	10144.016602
1764.112168	1.274176	0.324057	11564.722656
1764.113133	0.592742	0.324057	12136.718750
1764.113988	0.092915	0.324057	12216.161133
1764.115055	0.090077	0.324057	12312.273437
1764.116105	0.089989	0.324057	12406.761719
1764.116989	0.090055	0.324057	12486.370117
1764.117920	0.090004	0.324057	12570.163086
1764.118981	0.090022	0.324057	12665.676758
1764.119923	0.089938	0.324057	12750.398437
1764.120789	0.089923	0.324057	12828.271484
1764.121839	0.090062	0.324057	12922.836914
1764.122864	0.089949	0.324057	13015.034180
1765.074964	1.142519	0.356795	580.399902
1765.076006	1.531406	0.356795	2176.125000
1765.076907	1.504816	0.356795	3531.963867
1765.077846	1.464064	0.356795	4906.719727
1765.078909	1.419434	0.356795	6415.577637
1765.079847	1.381296	0.356795	7711.233398
1765.080714	1.347598	0.356795	8879.600586
1765.081779	1.309427	0.356795	10274.140625
1765.082791	1.273704	0.356795	11563.128906
1765.083683	0.674106	0.356795	12164.431641
1765.084662	0.094874	0.356795	12257.313477
1765.085705	0.089967	0.356795	12351.149414
1765.086607	0.089927	0.356795	12432.263672
1765.087512	0.090059	0.356795	12513.766602
1765.088389	0.090007	0.356795	12592.703125
1765.089414	0.090004	0.356795	12684.957031
1765.090313	0.090000	0.356795	12765.867187
1765.091192	0.090040	0.356795	12845.012695
1765.092156	0.090044	0.356795	12931.815430
1765.093113	0.089985	0.356795	13017.931641
1766.139733	1.072921	0.320290	480.668671
1766.140613	1.526865	0.320290	1824.310059
1766.141580	1.511953	0.320290	3286.368652
1766.142625	1.466858	0.320290	4819.235352
1766.143514	1.428717	0.320290	6089.364746
1766.144379	1.392861	0.320290	7294.189453
1766.145423	1.352443	0.320290	8706.139648
1766.146379	1.317469	0.320290	9965.640625
1766.147247	1.286415	0.320290	11082.249023
1766.148296	0.910521	0.320290	12037.385742
1766.149318	0.100312	0.320290	12139.905273
1766.150204	0.090055	0.320290	12219.694336
1766.151157	0.090143	0.320290	12305.600586
1766.152217	0.090084	0.320290	12401.089844
1766.153148	0.089985	0.320290	12484.866211
1766.154013	0.090070	0.320290	12562.776367
1766.155097	0.090081	0.320290	12660.423828
1766.156086	0.090040	0.320290	12749.473633
1766.156977	0.089927	0.320290	12829.598633
1766.157958	0.090106	0.320290	12917.993164
1767.107580	1.090646	0.356102	534.416443
1767.108646	1.530392	0.356102	2165.814209
1767.109598	1.502681	0.356102	3596.366211
1767.110467	1.464280	0.356102	4868.825195
1767.111505	1.420675	0.356102	6343.485840
1767.112536	1.379407	0.356102	7765.654297
1767.113431	1.345093	0.356102	8969.512695
1767.114388	1.310497	0.356102	10223.658203
1767.115458	1.272905	0.356102	11585.666992
1767.116388	0.584246	0.356102	12129.015625
1767.117250	0.092941	0.356102	12209.130859
1767.118315	0.090018	0.356102	12305.000000
1767.119305	0.089886	0.356102	12393.987305
1767.120202	0.089930	0.356102	12474.655273
1767.121181	0.090000	0.356102	12562.765625
1767.122224	0.089996	0.356102	12656.631836
1767.123129	0.089960	0.356102	12738.044922
1767.123987	0.089960	0.356102	12815.230469
1767.125085	0.090040	0.356102	12914.094727
1767.126081	0.089993	0.356102	13003.727539
1768.174218	1.095044	0.321571	550.807129
1768.175282	1.530637	0.321571	2179.405029
1768.176220	1.502761	0.321571	3588.995117
1768.177082	1.464217	0.321571	4851.150391
1768.178167	1.419642	0.321571	6391.462402
1768.179176	1.378916	0.321571	7782.788574
1768.180058	1.345020	0.321571	8969.095703
1768.181049	1.309757	0.321571	10267.065430
1768.182109	1.272429	0.321571	11615.840820
1768.183025	0.574270	0.321571	12141.872070
1768.183883	0.092670	0.321571	12221.382812
1768.184957	0.089989	0.321571	12318.031250
1768.185942	0.089982	0.321571	12406.663086
1768.186834	0.090007	0.321571	12486.949219
1768.187822	0.090033	0.321571	12575.901367
1768.188879	0.089996	0.321571	12671.027344
1768.189785	0.089967	0.321571	12752.537109
1768.190661	0.089971	0.321571	12831.351562
1768.191518	0.090103	0.321571	12908.569336
1768.192596	0.089905	0.321571	13005.486328
1769.141046	1.048568	0.360892	439.350037
1769.142077	1.528715	0.360892	2015.454834
1769.143002	1.507493	0.360892	3409.885498
1769.143936	1.467349	0.360892	4780.389160
1769.144803	1.429006	0.360892	6019.337891
1769.145858	1.387760	0.360892	7483.424805
1769.146755	1.352930	0.360892	8697.002930
1769.147636	1.320494	0.360892	9860.358398
1769.148661	1.284976	0.360892	11177.458008
1769.149583	0.997295	0.360892	12096.963867
1769.150460	0.128115	0.360892	12209.321289
1769.151463	0.089919	0.360892	12299.510742
1769.152458	0.089996	0.360892	12389.056641
1769.153340	0.090004	0.360892	12468.439453
1769.154196	0.089897	0.360892	12545.391602
1769.155263	0.090084	0.360892	12641.511719
1769.156192	0.089945	0.360892	12725.070312
1769.157072	0.090004	0.360892	12804.273437
1769.158030	0.090007	0.360892	12890.500000
1769.159051	0.089978	0.360892	12982.367187
1770.210513	1.072471	0.320540	476.176971
1770.211606	1.529945	0.320540	2148.406738
1770.212561	1.503647	0.320540	3584.390137
1770.213428	1.465214	0.320540	4854.730469
1770.214469	1.421697	0.320540	6334.716797
1770.215522	1.379659	0.320540	7787.498047
1770.216401	1.345155	0.320540	8969.889648
1770.217343	1.310731	0.320540	10204.598633
1770.218410	1.273407	0.320540	11563.324219
1770.219360	0.593804	0.320540	12127.437500
1770.220226	0.092999	0.320540	12207.974609
1770.221295	0.090044	0.320540	12304.231445
1770.222305	0.090015	0.320540	12395.146484
1770.223198	0.089978	0.320540	12475.497070
1770.224171	0.089982	0.320540	12563.048828
1770.225216	0.089993	0.320540	12657.090820
1770.226131	0.089930	0.320540	12739.376953
1770.226994	0.089923	0.320540	12816.980469
1770.228094	0.090044	0.320540	12916.029297
1770.229082	0.089912	0.320540	13004.862305
1771.175539	1.123810	0.359735	537.181091
1771.176432	1.529165	0.359735	1902.725342
1771.177411	1.509324	0.359735	3380.353271
1771.178472	1.463306	0.359735	4932.920410
1771.179392	1.424180	0.359735	6243.165527
1771.180260	1.387654	0.359735	7447.648926
1771.181366	1.346261	0.359735	8936.613281
1771.182362	1.309548	0.359735	10240.923828
1771.183271	1.278047	0.359735	11402.668945
1771.184282	0.684910	0.359735	12095.112305
1771.185320	0.092065	0.359735	12190.675781
1771.186215	0.089996	0.359735	12271.222656
1771.187103	0.089934	0.359735	12351.083984
1771.188194	0.090000	0.359735	12449.274414
1771.189154	0.090018	0.359735	12535.692383
1771.190015	0.090004	0.359735	12613.185547
1771.191054	0.090059	0.359735	12706.756836
1771.192084	0.089941	0.359735	12799.396484
1771.192968	0.089963	0.359735	12878.923828
1771.193900	0.090026	0.359735	12962.828125
1772.245466	1.092752	0.318477	495.016418
1772.246352	1.527349	0.318477	1848.247314
1772.247232	1.514923	0.318477	3181.379639
1772.248229	1.472501	0.318477	4649.463379
1772.249174	1.431797	0.318477	6002.511719
1772.250100	1.394107	0.318477	7293.454102
1772.250969	1.359250	0.318477	8474.642578
1772.252007	1.321487	0.318477	9846.345703
1772.252884	1.289542	0.318477	10977.274414
1772.253765	1.192119	0.318477	12027.531250
1772.254726	0.208795	0.318477	12228.183594
1772.255685	0.089857	0.318477	12314.356445
1772.256593	0.089875	0.318477	12395.963867
1772.257469	0.089985	0.318477	12474.791016
1772.258499	0.089967	0.318477	12567.457031
1772.259390	0.090033	0.318477	12647.676758
1772.260250	0.089952	0.318477	12725.036133
1772.261315	0.090015	0.318477	12820.901367
1772.262269	0.089967	0.318477	12906.729492
1772.263156	0.089872	0.318477	12986.445312
1773.209426	1.066718	0.357045	464.022125
1773.210302	1.526070	0.357045	1800.859863
1773.211248	1.512858	0.357045	3232.023193
1773.212221	1.470300	0.357045	4662.625488
1773.213147	1.431416	0.357045	5988.116699
1773.214030	1.395136	0.357045	7220.021484
1773.215056	1.355771	0.357045	8611.042969
1773.215972	1.321366	0.357045	9821.414062
1773.216841	1.290337	0.357045	10942.716797
1773.217920	0.992410	0.357045	12013.527344
1773.218885	0.115034	0.357045	12124.535156
1773.219780	0.089872	0.357045	12204.970703
1773.220662	0.089971	0.357045	12284.325195
1773.221753	0.089989	0.357045	12382.502930
1773.222638	0.089883	0.357045	12462.048828
1773.223495	0.089857	0.357045	12539.056641
1773.224548	0.090037	0.357045	12633.865234
1773.225511	0.089905	0.357045	12720.443359
1773.226385	0.090015	0.357045	12799.116211
1773.227241	0.090022	0.357045	12876.174805
1774.280503	1.137982	0.316838	622.476196
1774.281553	1.531011	0.316838	2230.037598
1774.282462	1.502904	0.316838	3596.177246
1774.283323	1.463152	0.316838	4855.951172
1774.284433	1.418701	0.316838	6430.709473
1774.285400	1.379553	0.316838	7764.737305
1774.286270	1.345854	0.316838	8935.630859
1774.287266	1.309772	0.316838	10240.164062
1774.288323	1.273008	0.316838	11585.733398
1774.289223	0.623914	0.316838	12147.255859
1774.290114	0.093739	0.316838	12230.777344
1774.291213	0.090037	0.316838	12329.727539
1774.292168	0.089934	0.316838	12415.614258
1774.293035	0.089941	0.316838	12493.593750
1774.294054	0.090026	0.316838	12585.330078
1774.295088	0.089905	0.316838	12678.291992
1774.295981	0.089960	0.316838	12758.625977
1774.296917	0.090055	0.316838	12842.916992
1774.297973	0.089963	0.316838	12937.917969
1774.298919	0.089916	0.316838	13022.978516
1775.243189	1.060796	0.362350	443.412689
1775.244287	1.529806	0.362350	2123.139648
1775.245291	1.501564	0.362350	3630.709473
1775.246190	1.462441	0.362350	4945.444336
1775.247192	1.420964	0.362350	6369.250488
1775.248240	1.379026	0.362350	7814.469727
1775.249138	1.344016	0.362350	9021.396484
1775.250011	1.310519	0.362350	10165.479492
1775.251110	1.273352	0.362350	11564.893555
1775.252072	0.588710	0.362350	12131.232422
1775.252934	0.092930	0.362350	12211.337891
1775.253979	0.090007	0.362350	12305.395508
1775.255003	0.089930	0.362350	12397.484375
1775.255887	0.089908	0.362350	12476.963867
1775.256825	0.089967	0.362350	12561.352539
1775.257871	0.090029	0.362350	12655.523437
1775.258807	0.089905	0.362350	12739.673828
1775.259666	0.089945	0.362350	12816.936523
1775.260696	0.090015	0.362350	12909.651367
1775.261714	0.090015	0.362350	13001.286133
1776.315734	1.068116	0.316016	477.448029
1776.316642	1.528543	0.316016	1865.364624
1776.317507	1.512360	0.316016	3173.555664
1776.318545	1.469626	0.316016	4699.027832
1776.319466	1.431006	0.316016	6016.984375
1776.320349	1.394626	0.316016	7248.439453
1776.321439	1.353274	0.316016	8723.507812
1776.322338	1.319037	0.316016	9909.322266
1776.323216	1.287968	0.316016	11040.158203
1776.324085	1.067457	0.316016	11967.778320
1776.325144	0.126508	0.316016	12101.750000
1776.326030	0.089824	0.316016	12181.333984
1776.326887	0.089927	0.316016	12258.401367
1776.327983	0.089996	0.316016	12357.037109
1776.328863	0.089897	0.316016	12436.146484
1776.329739	0.090007	0.316016	12514.993164
1776.330715	0.089989	0.316016	12602.822266
1776.331720	0.089930	0.316016	12693.202148
1776.332616	0.089868	0.316016	12773.723633
1776.333477	0.089923	0.316016	12851.147461
1777.278301	1.097974	0.360376	503.969879
1777.279177	1.527268	0.360376	1841.856689
1777.280183	1.510441	0.360376	3361.359863
1777.281240	1.464075	0.360376	4908.886719
1777.282153	1.425234	0.360376	6210.125977
1777.283017	1.388492	0.360376	7409.783203
1777.284131	1.347418	0.360376	8910.806641
1777.285091	1.311335	0.360376	10169.688477
1777.285975	1.280585	0.360376	11301.725586
1777.286978	0.771650	0.360376	12075.691406
1777.288030	0.093717	0.360376	12174.281250
1777.288922	0.089886	0.360376	12254.459961
1777.289800	0.089941	0.360376	12333.428711
1777.290897	0.090007	0.360376	12432.166992
1777.291853	0.089897	0.360376	12518.109375
1777.292721	0.089872	0.360376	12596.118164
1777.293756	0.090051	0.360376	12689.321289
1777.294793	0.089956	0.360376	12782.605469
1777.295691	0.089894	0.360376	12863.330078
1777.296629	0.090059	0.360376	12947.804687
1778.350724	1.118921	0.311098	554.984802
1778.351691	1.531095	0.311098	2035.553467
1778.352559	1.510133	0.311098	3346.349121
1778.353632	1.463335	0.311098	4916.507812
1778.354669	1.420203	0.311098	6389.257812
1778.355569	1.383208	0.311098	7634.145020
1778.356510	1.347426	0.311098	8902.072266
1778.357560	1.308563	0.311098	10276.063477
1778.358505	1.275590	0.311098	11481.496094
1778.359381	0.767054	0.311098	12153.435547
1778.360443	0.093461	0.311098	12252.690430
1778.361446	0.089828	0.311098	12342.788086
1778.362327	0.089938	0.311098	12422.023437
1778.363299	0.089952	0.311098	12509.457031
1778.364346	0.089978	0.311098	12603.664062
1778.365268	0.089927	0.311098	12686.576172
1778.366126	0.089912	0.311098	12763.720703
1778.367208	0.090007	0.311098	12861.108398
1778.368213	0.089971	0.311098	12951.529297
1778.369089	0.089890	0.311098	13030.273437
1779.313486	1.185117	0.355518	677.887085
1779.314536	1.531000	0.355518	2285.436768
1779.315417	1.502728	0.355518	3609.340332
1779.316323	1.462672	0.355518	4934.521484
1779.317207	1.425692	0.355518	6194.833496
1779.318176	1.386021	0.355518	7537.887695
1779.319105	1.350377	0.355518	8792.387695
1779.319989	1.317942	0.355518	9957.448242
1779.320973	1.283862	0.355518	11220.768555
1779.321907	0.946384	0.355518	12104.691406
1779.322837	0.111610	0.355518	12208.489258
1779.323705	0.089857	0.355518	12286.485352
1779.324752	0.089897	0.355518	12380.608398
1779.325628	0.089919	0.355518	12459.377930
1779.326495	0.089912	0.355518	12537.332031
1779.327473	0.090037	0.355518	12625.387695
1779.328394	0.089949	0.355518	12708.230469
1779.329275	0.089919	0.355518	12787.449219
1779.330211	0.090022	0.355518	12871.709961
1779.331252	0.089971	0.355518	12965.369141
1780.385337	1.051080	0.308427	442.504822
1780.386267	1.523716	0.308427	1859.560547
1780.387357	1.505138	0.308427	3500.160889
1780.388310	1.463760	0.308427	4895.124023
1780.389182	1.426370	0.308427	6138.917969
1780.390248	1.383695	0.308427	7613.937012
1780.391265	1.344514	0.308427	8981.307617
1780.392160	1.311819	0.308427	10155.385742
1780.393124	1.278490	0.308427	11387.849609
1780.394199	0.615736	0.308427	12049.765625
1780.395119	0.092021	0.308427	12134.425781
1780.395983	0.089894	0.308427	12212.093750
1780.397075	0.089978	0.308427	12310.349609
1780.398077	0.089861	0.308427	12400.390625
1780.398971	0.089868	0.308427	12480.732422
1780.399970	0.090004	0.308427	12570.646484
1780.401000	0.089905	0.308427	12663.248047
1780.401886	0.089934	0.308427	12742.929687
1780.402744	0.089879	0.308427	12820.045898
1780.403858	0.090048	0.308427	12920.359375
1781.346478	1.147251	0.359490	621.810059
1781.347538	1.530615	0.359490	2244.262207
1781.348450	1.501981	0.359490	3614.069092
1781.349318	1.462368	0.359490	4883.404785
1781.350435	1.417214	0.359490	6466.433105
1781.351409	1.378341	0.359490	7808.937500
1781.352284	1.344591	0.359490	8985.455078
1781.353327	1.306805	0.359490	10348.453125
1781.354369	1.270565	0.359490	11672.381836
1781.355273	0.532515	0.359490	12153.775391
1781.356201	0.092194	0.359490	12239.331055
1781.357258	0.090033	0.359490	12334.496094
1781.358196	0.089879	0.359490	12418.802734
1781.359056	0.089905	0.359490	12496.121094
1781.360108	0.090000	0.359490	12590.800781
1781.361117	0.089872	0.359490	12681.481445
1781.362001	0.089821	0.359490	12760.882812
1781.362957	0.089945	0.359490	12846.870117
1781.364004	0.089919	0.359490	12941.015625
1781.364928	0.089956	0.359490	13024.134766
1782.420384	1.138971	0.311823	582.014160
1782.421334	1.531190	0.311823	2036.644897
1782.422197	1.510049	0.311823	3339.816895
1782.423232	1.465042	0.311823	4856.134766
1782.424265	1.421971	0.311823	6325.031250
1782.425152	1.385468	0.311823	7553.940918
1782.426082	1.349711	0.311823	8809.171875
1782.427135	1.311145	0.311823	10189.807617
1782.428079	1.277948	0.311823	11396.190430
1782.429012	0.791982	0.311823	12135.110352
1782.429873	0.100250	0.311823	12221.425781
1782.430898	0.089897	0.311823	12313.570312
1782.431802	0.089821	0.311823	12394.768555
1782.432676	0.089872	0.311823	12473.316406
1782.433584	0.089941	0.311823	12554.983398
1782.434590	0.089828	0.311823	12645.350586
1782.435502	0.089905	0.311823	12727.343750
1782.436399	0.089872	0.311823	12807.958984
1782.437415	0.089967	0.311823	12899.365234
1782.438309	0.089897	0.311823	12979.733398
1783.382109	1.105012	0.356392	498.360535
1783.382994	1.527429	0.356392	1850.135498
1783.383986	1.510287	0.356392	3348.340088
1783.384903	1.469092	0.356392	4695.497070
1783.385786	1.432310	0.356392	5960.226562
1783.386783	1.391873	0.356392	7347.923828
1783.387788	1.352512	0.356392	8707.198242
1783.388690	1.319194	0.356392	9897.111328
1783.389555	1.287041	0.356392	11010.402344
1783.390673	0.928001	0.356392	12047.907227
1783.391568	0.111456	0.356392	12147.660156
1783.392442	0.089828	0.356392	12226.169922
1783.393444	0.089982	0.356392	12316.332031
1783.394444	0.089908	0.356392	12406.240234
1783.395331	0.089960	0.356392	12486.034180
1783.396187	0.089956	0.356392	12563.036133
1783.397248	0.089974	0.356392	12658.499023
1783.398154	0.089952	0.356392	12739.996094
1783.399021	0.089927	0.356392	12817.962891
1783.400109	0.090015	0.356392	12915.898437
1784.454128	1.109275	0.309124	525.796265
1784.455016	1.528711	0.309124	1883.291504
1784.455974	1.510686	0.309124	3330.528809
1784.457038	1.464335	0.309124	4888.581055
1784.457974	1.424659	0.309124	6222.062500
1784.458841	1.388613	0.309124	7425.990234
1784.459930	1.347253	0.309124	8893.149414
1784.460931	1.310431	0.309124	10204.890625
1784.461833	1.279091	0.309124	11358.629883
1784.462817	0.755149	0.309124	12101.696289
1784.463847	0.093691	0.309124	12198.198242
1784.464748	0.089901	0.309124	12279.199219
1784.465610	0.089952	0.309124	12356.738281
1784.466706	0.090033	0.309124	12455.414062
1784.467695	0.089960	0.309124	12544.383789
1784.468573	0.089919	0.309124	12623.333008
1784.469575	0.090022	0.309124	12713.535156
1784.470625	0.089923	0.309124	12807.954102
1784.471507	0.089927	0.309124	12887.269531
1784.472364	0.089919	0.309124	12964.330078
1785.416372	1.161797	0.353198	616.914124
1785.417395	1.531326	0.353198	2183.460205
1785.418292	1.504479	0.353198	3532.977539
1785.419245	1.463152	0.353198	4927.361328
1785.420299	1.418599	0.353198	6422.564453
1785.421246	1.380579	0.353198	7729.972656
1785.422110	1.346367	0.353198	8893.234375
1785.423203	1.307278	0.353198	10322.088867
1785.424191	1.272546	0.353198	11579.365234
1785.425089	0.641426	0.353198	12155.365234
1785.426078	0.093446	0.353198	12247.783203
1785.427121	0.089905	0.353198	12341.553711
1785.428010	0.089934	0.353198	12421.504883
1785.428935	0.089908	0.353198	12504.669922
1785.429794	0.089919	0.353198	12581.911133
1785.430840	0.089912	0.353198	12675.958984
1785.431720	0.089883	0.353198	12755.055664
1785.432594	0.089945	0.353198	12833.667969
1785.433560	0.090018	0.353198	12920.625977
1785.434482	0.089854	0.353198	13003.470703
1786.488013	1.068541	0.309812	459.472748
1786.488908	1.524902	0.309812	1824.260376
1786.490004	1.506134	0.309812	3474.983398
1786.490946	1.464877	0.309812	4854.897461
1786.491809	1.428259	0.309812	6087.485352
1786.492859	1.386233	0.309812	7543.030273
1786.493885	1.346631	0.309812	8924.673828
1786.494764	1.313851	0.309812	10079.548828
1786.495712	1.280541	0.309812	11293.501953
1786.496769	0.716396	0.309812	12050.733398
1786.497708	0.094226	0.309812	12139.211914
1786.498576	0.089795	0.309812	12217.154297
1786.499619	0.090004	0.309812	12311.028320
1786.500629	0.089890	0.309812	12401.817383
1786.501520	0.089839	0.309812	12481.864258
1786.502472	0.090007	0.309812	12567.550781
1786.503523	0.089945	0.309812	12662.083008
1786.504452	0.089846	0.309812	12745.549805
1786.505314	0.089963	0.309812	12823.098633
1786.506375	0.090062	0.309812	12918.654297
1787.451463	1.067172	0.351292	461.018158
1787.452440	1.525477	0.351292	1951.409546
1787.453489	1.504849	0.351292	3529.995605
1787.454410	1.464166	0.351292	4878.492676
1787.455274	1.426483	0.351292	6110.974121
1787.456364	1.383582	0.351292	7619.078125
1787.457370	1.344734	0.351292	8971.880859
1787.458257	1.312431	0.351292	10136.006836
1787.459264	1.277644	0.351292	11422.594727
1787.460331	0.614037	0.351292	12077.772461
1787.461207	0.092640	0.351292	12158.925781
1787.462075	0.089916	0.351292	12236.972656
1787.463164	0.089996	0.351292	12334.978516
1787.464131	0.089897	0.351292	12421.909180
1787.464992	0.089799	0.351292	12499.225586
1787.466026	0.090000	0.351292	12592.285156
1787.467066	0.089949	0.351292	12685.832031
1787.467955	0.089897	0.351292	12765.750977
1787.468887	0.089985	0.351292	12849.617187
1787.469949	0.089868	0.351292	12945.057617
1788.522675	1.055885	0.305200	442.415802
1788.523749	1.530985	0.305200	2086.693848
1788.524644	1.507614	0.305200	3436.007812
1788.525510	1.469000	0.305200	4708.162109
1788.526579	1.424630	0.305200	6231.091797
1788.527518	1.386398	0.305200	7532.918945
1788.528401	1.352344	0.305200	8727.039062
1788.529382	1.316931	0.305200	10018.948242
1788.530416	1.280197	0.305200	11342.671875
1788.531310	0.900190	0.305200	12147.442383
1788.532167	0.111160	0.305200	12242.706055
1788.533224	0.089879	0.305200	12337.708008
1788.534176	0.090018	0.305200	12423.405273
1788.535042	0.090040	0.305200	12501.379883
1788.536086	0.090084	0.305200	12595.427734
1788.537101	0.089938	0.305200	12686.714844
1788.537999	0.089927	0.305200	12767.468750
1788.538952	0.089971	0.305200	12853.210937
1788.540008	0.090066	0.305200	12948.320312
1788.540937	0.090033	0.305200	13031.960937
1789.484859	1.051124	0.355224	443.574432
1789.485913	1.528696	0.355224	2054.820312
1789.486933	1.503039	0.355224	3587.920410
1789.487829	1.463749	0.355224	4899.439453
1789.488782	1.424224	0.355224	6256.724609
1789.489837	1.381318	0.355224	7714.015625
1789.490769	1.345474	0.355224	8967.997070
1789.491633	1.313016	0.355224	10102.443359
1789.492708	1.276175	0.355224	11474.332031
1789.493720	0.609565	0.355224	12091.211914
1789.494601	0.092966	0.355224	12173.115234
1789.495567	0.089927	0.355224	12259.984375
1789.496630	0.089967	0.355224	12355.619141
1789.497534	0.089854	0.355224	12436.846680
1789.498397	0.089978	0.355224	12514.498047
1789.499460	0.089982	0.355224	12610.148437
1789.500451	0.089908	0.355224	12699.248047
1789.501342	0.089974	0.355224	12779.415039
1789.502314	0.090022	0.355224	12866.916016
1789.503370	0.089949	0.355224	12961.902344
1790.556907	1.107898	0.307823	519.604187
1790.557784	1.527466	0.307823	1859.191650
1790.558658	1.514418	0.307823	3182.792725
1790.559646	1.472270	0.307823	4637.395996
1790.560593	1.431163	0.307823	5992.707520
1790.561506	1.393923	0.307823	7265.359375
1790.562389	1.359335	0.307823	8465.652344
1790.563412	1.321765	0.307823	9817.818359
1790.564317	1.289421	0.307823	10984.745117
1790.565199	1.188307	0.307823	12032.832031
1790.566131	0.209989	0.307823	12228.541992
1790.567142	0.089751	0.307823	12319.280273
1790.568060	0.089857	0.307823	12401.769531
1790.568922	0.090000	0.307823	12479.349609
1790.569995	0.089971	0.307823	12575.887695
1790.570886	0.089897	0.307823	12655.986328
1790.571748	0.089857	0.307823	12733.443359
1790.572813	0.089934	0.307823	12829.223633
1790.573770	0.089967	0.307823	12915.322266
1790.574649	0.089996	0.307823	12994.428711
1791.520009	1.117577	0.350684	554.318176
1791.520890	1.528711	0.350684	1901.112549
1791.521757	1.513121	0.350684	3212.988770
1791.522795	1.467913	0.350684	4736.682129
1791.523760	1.427578	0.350684	6114.294922
1791.524630	1.391781	0.350684	7325.144531
1791.525659	1.351967	0.350684	8716.318359
1791.526702	1.313727	0.350684	10086.535156
1791.527612	1.281599	0.350684	11252.790039
1791.528550	0.876566	0.350684	12075.008789
1791.529617	0.097518	0.350684	12179.060547
1791.530553	0.089901	0.350684	12263.208008
1791.531416	0.089864	0.350684	12340.760742
1791.532464	0.090011	0.350684	12435.091797
1791.533481	0.089974	0.350684	12526.595703
1791.534361	0.089930	0.350684	12605.734375
1791.535336	0.089993	0.350684	12693.477539
1791.536382	0.090051	0.350684	12787.670898
1791.537300	0.089938	0.350684	12870.233398
1791.538162	0.090011	0.350684	12947.823242
1792.592211	1.186432	0.302610	677.452637
1792.593266	1.530817	0.302610	2292.464355
1792.594146	1.502175	0.302610	3614.378662
1792.595087	1.461233	0.302610	4989.398926
1792.596143	1.416570	0.302610	6485.296875
1792.597094	1.378678	0.302610	7796.419922
1792.597966	1.345082	0.302610	8969.331055
1792.599004	1.307314	0.302610	10326.323242
1792.600018	1.271755	0.302610	11615.882812
1792.600922	0.598835	0.302610	12157.230469
1792.601884	0.093102	0.302610	12246.793945
1792.602928	0.089974	0.302610	12340.727539
1792.603856	0.089875	0.302610	12424.131836
1792.604721	0.089956	0.302610	12501.943359
1792.605811	0.090033	0.302610	12600.079102
1792.606803	0.089897	0.302610	12689.257812
1792.607692	0.089919	0.302610	12769.196289
1792.608690	0.089952	0.302610	12858.968750
1792.609735	0.089960	0.302610	12952.976562
1792.610621	0.089989	0.302610	13032.707031
1793.554524	1.069318	0.352770	480.123596
1793.555387	1.526137	0.352770	1797.179443
1793.556415	1.509532	0.352770	3348.978760
1793.557319	1.469634	0.352770	4677.527832
1793.558198	1.432357	0.352770	5936.569824
1793.559102	1.394590	0.352770	7197.278809
1793.560120	1.355006	0.352770	8576.674805
1793.561056	1.320780	0.352770	9812.924805
1793.561924	1.288561	0.352770	10931.395508
1793.563050	0.981083	0.352770	12036.094727
1793.563946	0.120187	0.352770	12143.782227
1793.564806	0.089784	0.352770	12220.996094
1793.565846	0.090059	0.352770	12314.657227
1793.566806	0.089868	0.352770	12400.930664
1793.567692	0.089930	0.352770	12480.609375
1793.568548	0.089901	0.352770	12557.564453
1793.569645	0.089934	0.352770	12656.221680
1793.570530	0.089864	0.352770	12735.751953
1793.571408	0.089864	0.352770	12814.653320
1793.572400	0.090055	0.352770	12903.988281
1794.626318	1.120305	0.304451	565.754089
1794.627197	1.529432	0.304451	1910.125000
1794.628104	1.510518	0.304451	3280.164551
1794.629202	1.463507	0.304451	4887.095215
1794.630157	1.423788	0.304451	6246.812500
1794.631025	1.388207	0.304451	7451.775879
1794.632080	1.347528	0.304451	8873.417969
1794.633117	1.309731	0.304451	10231.609375
1794.634021	1.277915	0.304451	11386.844727
1794.634985	0.747407	0.304451	12107.345703
1794.636030	0.093164	0.304451	12204.702148
1794.636960	0.089908	0.304451	12288.317383
1794.637823	0.089993	0.304451	12365.981445
1794.638880	0.090004	0.304451	12461.115234
1794.639887	0.089850	0.304451	12551.593750
1794.640768	0.089912	0.304451	12630.806641
1794.641744	0.090051	0.304451	12718.696289
1794.642786	0.089949	0.304451	12812.422852
1794.643694	0.089941	0.304451	12894.089844
1794.644551	0.089912	0.304451	12971.144531
1795.588891	1.137678	0.354192	576.802795
1795.589902	1.530945	0.354192	2124.587891
1795.590786	1.506196	0.354192	3456.065430
1795.591794	1.462229	0.354192	4929.992187
1795.592863	1.418412	0.354192	6446.274414
1795.593745	1.381915	0.354192	7665.123535
1795.594635	1.346294	0.354192	8863.325195
1795.595739	1.307179	0.354192	10306.451172
1795.596707	1.273718	0.354192	11539.410156
1795.597584	0.702242	0.354192	12155.276367
1795.598620	0.092593	0.354192	12251.202148
1795.599657	0.089901	0.354192	12344.429687
1795.600548	0.089908	0.354192	12424.538086
1795.601486	0.089945	0.354192	12508.906250
1795.602562	0.089963	0.354192	12605.707031
1795.603504	0.089908	0.354192	12690.400391
1795.604431	0.089949	0.354192	12773.783203
1795.605297	0.090015	0.354192	12851.736328
1795.606328	0.089912	0.354192	12944.435547
1795.607209	0.089930	0.354192	13023.664062
1796.660306	1.069365	0.303842	469.451294
1796.661172	1.525554	0.303842	1790.581177
1796.662204	1.509576	0.303842	3348.464111
1796.663185	1.467118	0.303842	4787.707031
1796.664048	1.430054	0.303842	6021.843262
1796.665117	1.387163	0.303842	7504.720703
1796.666157	1.347521	0.303842	8906.142578
1796.667034	1.314130	0.303842	10058.634766
1796.667951	1.281518	0.303842	11233.787109
1796.669051	0.717191	0.303842	12022.697266
1796.669996	0.094006	0.303842	12111.533203
1796.670864	0.089890	0.303842	12189.557617
1796.671887	0.090066	0.303842	12281.695312
1796.672906	0.089941	0.303842	12373.345703
1796.673796	0.089923	0.303842	12453.376953
1796.674755	0.089934	0.303842	12539.624023
1796.675812	0.089974	0.303842	12634.726562
1796.676752	0.089945	0.303842	12719.275391
1796.677613	0.089886	0.303842	12796.667969
1796.678693	0.089989	0.303842	12893.856445
1797.623868	1.051183	0.348613	443.599182
1797.624865	1.525496	0.348613	1964.518311
1797.625918	1.504179	0.348613	3548.418457
1797.626829	1.463738	0.348613	4881.883789
1797.627696	1.425465	0.348613	6117.762207
1797.628811	1.382120	0.348613	7658.826172
1797.629778	1.345261	0.348613	8959.693359
1797.630646	1.313335	0.348613	10099.667969
1797.631706	1.276249	0.348613	11452.492187
1797.632742	0.608617	0.348613	12083.019531
1797.633621	0.092999	0.348613	12164.765625
1797.634549	0.089982	0.348613	12248.268555
1797.635626	0.090007	0.348613	12345.206055
1797.636559	0.089916	0.348613	12429.097656
1797.637417	0.089996	0.348613	12506.314453
1797.638451	0.089963	0.348613	12599.336914
1797.639472	0.089963	0.348613	12691.189453
1797.640366	0.089956	0.348613	12771.610352
1797.641313	0.089883	0.348613	12856.729492
1797.642371	0.089945	0.348613	12951.891602
1798.694068	1.053702	0.303899	441.501282
1798.695134	1.529326	0.303899	2071.762939
1798.696137	1.502908	0.303899	3579.179443
1798.697033	1.463826	0.303899	4890.767578
1798.698015	1.423224	0.303899	6288.373535
1798.699081	1.379853	0.303899	7759.297363
1798.700002	1.344210	0.303899	8997.315430
1798.700866	1.311530	0.303899	10130.476562
1798.701955	1.274703	0.303899	11518.628906
1798.702951	0.578877	0.303899	12095.190430
1798.703830	0.092560	0.303899	12176.550781
1798.704704	0.089821	0.303899	12255.053711
1798.705713	0.089916	0.303899	12345.778320
1798.706623	0.089938	0.303899	12427.622070
1798.707527	0.089868	0.303899	12508.863281
1798.708403	0.089971	0.303899	12587.677734
1798.709433	0.089916	0.303899	12680.291016
1798.710318	0.089945	0.303899	12759.892578
1798.711196	0.089945	0.303899	12838.864258
1798.712150	0.090026	0.303899	12924.749023
1799.659275	1.134415	0.345487	558.132324
1799.660158	1.528762	0.345487	1908.029297
1799.661021	1.512759	0.345487	3213.540039
1799.662090	1.467052	0.345487	4781.818848
1799.663039	1.426948	0.345487	6135.992676
1799.663916	1.391228	0.345487	7356.099609
1799.664845	1.354581	0.345487	8614.505859
1799.665898	1.315829	0.345487	10000.074219
1799.666808	1.283701	0.345487	11168.242187
1799.667683	1.041702	0.345487	12079.731445
1799.668722	0.114741	0.345487	12198.947266
1799.669672	0.089832	0.345487	12284.287109
1799.670551	0.089971	0.345487	12363.371094
1799.671478	0.090015	0.345487	12446.814453
1799.672527	0.089897	0.345487	12541.117187
1799.673419	0.089912	0.345487	12621.318359
1799.674349	0.089938	0.345487	12704.960937
1799.675414	0.089912	0.345487	12800.717773
1799.676350	0.089927	0.345487	12884.889648
1799.677211	0.089989	0.345487	12962.370117
1800.728850	1.126249	0.302352	574.386841
1800.729753	1.530033	0.302352	1956.006470
1800.730616	1.510605	0.302352	3259.658936
1800.731713	1.464122	0.302352	4865.801270
1800.732708	1.421869	0.302352	6280.560547
1800.733611	1.385684	0.302352	7531.833008
1800.734603	1.347803	0.302352	8868.853516
1800.735659	1.309717	0.302352	10251.914062
1800.736555	1.277454	0.302352	11396.512695
1800.737431	0.802339	0.302352	12099.361328
1800.738529	0.093944	0.302352	12202.511719
1800.739492	0.089846	0.302352	12289.033203
1800.740355	0.089941	0.302352	12366.652344
1800.741387	0.089974	0.302352	12459.505859
1800.742410	0.089934	0.302352	12551.508789
1800.743290	0.089908	0.302352	12630.627930
1800.744205	0.089934	0.302352	12712.917969
1800.745284	0.090007	0.302352	12810.036133
1800.746226	0.089963	0.302352	12894.781250
1800.747085	0.090040	0.302352	12972.125977
1801.693242	1.049575	0.352807	441.871155
1801.694187	1.523522	0.352807	1881.599121
1801.695243	1.505515	0.352807	3471.423096
1801.696188	1.464316	0.352807	4855.202148
1801.697060	1.427183	0.352807	6099.705078
1801.698123	1.384449	0.352807	7571.375000
1801.699140	1.345199	0.352807	8939.442383
1801.700042	1.312288	0.352807	10123.125977
1801.701024	1.278384	0.352807	11378.499023
1801.702093	0.631212	0.352807	12053.264648
1801.703014	0.092271	0.352807	12138.246094
1801.703876	0.089912	0.352807	12215.750000
1801.704971	0.089978	0.352807	12314.276367
1801.705952	0.089897	0.352807	12402.465820
1801.706850	0.089864	0.352807	12483.164062
1801.707855	0.090033	0.352807	12573.647461
1801.708900	0.089982	0.352807	12667.678711
1801.709783	0.090007	0.352807	12747.155273
1801.710648	0.089868	0.352807	12824.891602
1801.711751	0.090018	0.352807	12924.181641
1802.763067	1.050399	0.297570	442.218048
1802.763971	1.523782	0.297570	1819.716675
1802.765081	1.505123	0.297570	3490.403320
1802.766040	1.463536	0.297570	4893.934570
1802.766910	1.426304	0.297570	6134.818848
1802.767955	1.384526	0.297570	7581.648926
1802.768967	1.345605	0.297570	8943.401367
1802.769854	1.312987	0.297570	10108.020508
1802.770833	1.279438	0.297570	11360.590820
1802.771885	0.670188	0.297570	12065.628906
1802.772807	0.093442	0.297570	12151.783203
1802.773665	0.090000	0.297570	12229.002930
1802.774721	0.090004	0.297570	12324.046875
1802.775721	0.089846	0.297570	12413.892578
1802.776594	0.089839	0.297570	12492.322266
1802.777567	0.089963	0.297570	12579.856445
1802.778624	0.089963	0.297570	12674.947266
1802.779534	0.089923	0.297570	12756.777344
1802.780406	0.090055	0.297570	12835.305664
1802.781480	0.090062	0.297570	12932.032227
1803.728036	1.145585	0.347143	589.976135
1803.729034	1.531022	0.347143	2117.935791
1803.729922	1.506456	0.347143	3455.668945
1803.730915	1.463328	0.347143	4908.753418
1803.731982	1.419141	0.347143	6422.976562
1803.732870	1.381985	0.347143	7650.179199
1803.733745	1.346810	0.347143	8828.638672
1803.734850	1.308040	0.347143	10274.022461
1803.735831	1.274055	0.347143	11523.870117
1803.736711	0.717422	0.347143	12155.201172
1803.737738	0.093354	0.347143	12251.076172
1803.738778	0.089857	0.347143	12344.527344
1803.739658	0.089886	0.347143	12423.626953
1803.740560	0.090081	0.347143	12504.879883
1803.741642	0.089952	0.347143	12602.208008
1803.742588	0.089864	0.347143	12687.219727
1803.743458	0.089945	0.347143	12765.471680
1803.744504	0.090022	0.347143	12859.634766
1803.745522	0.089894	0.347143	12951.146484
1803.746410	0.089927	0.347143	13031.000977
1804.796729	1.050604	0.301925	442.304382
1804.797664	1.524056	0.301925	1867.297119
1804.798716	1.506606	0.301925	3452.247070
1804.799620	1.466949	0.301925	4778.369141
1804.800487	1.429805	0.301925	6018.009766
1804.801549	1.387090	0.301925	7491.099121
1804.802503	1.350388	0.301925	8779.369141
1804.803387	1.317572	0.301925	9944.102539
1804.804329	1.284481	0.301925	11154.083984
1804.805386	0.866298	0.301925	12069.760742
1804.806268	0.106234	0.301925	12163.458984
1804.807127	0.089828	0.301925	12240.621094
1804.808179	0.089901	0.301925	12335.197266
1804.809131	0.089835	0.301925	12420.720703
1804.809990	0.089978	0.301925	12498.011719
1804.811006	0.089960	0.301925	12589.411133
1804.812036	0.089901	0.301925	12682.009766
1804.812929	0.089945	0.301925	12762.331055
1804.813859	0.089919	0.301925	12845.956055
1804.814914	0.089952	0.301925	12940.855469
1805.762645	1.087222	0.349463	480.551971
1805.763511	1.525111	0.349463	1801.298218
1805.764625	1.505570	0.349463	3478.503418
1805.765600	1.463097	0.349463	4905.022949
1805.766470	1.426282	0.349463	6145.888184
1805.767489	1.385453	0.349463	7557.664551
1805.768534	1.345488	0.349463	8963.700195
1805.769425	1.312247	0.349463	10132.912109
1805.770320	1.279618	0.349463	11278.169922
1805.771423	0.687843	0.349463	12036.860352
1805.772360	0.093102	0.349463	12124.096680
1805.773230	0.089854	0.349463	12202.269531
1805.774259	0.090029	0.349463	12294.910156
1805.775290	0.089843	0.349463	12387.538086
1805.776187	0.089875	0.349463	12468.156250
1805.777125	0.089949	0.349463	12552.528320
1805.778189	0.089956	0.349463	12648.241211
1805.779124	0.089908	0.349463	12732.305664
1805.779992	0.089923	0.349463	12810.359375
1805.781055	0.089974	0.349463	12906.001953
1806.830012	1.067937	0.304366	453.873230
1806.831117	1.529689	0.304366	2144.179199
1806.832108	1.501146	0.304366	3631.814941
1806.833010	1.462039	0.304366	4950.573730
1806.834008	1.420514	0.304366	6368.246582
1806.835059	1.378784	0.304366	7817.348633
1806.835957	1.343599	0.304366	9023.900391
1806.836843	1.310032	0.304366	10184.588867
1806.837934	1.273253	0.304366	11573.708008
1806.838892	0.593137	0.304366	12141.933594
1806.839753	0.093080	0.304366	12222.075195
1806.840788	0.089982	0.304366	12315.206055
1806.841814	0.089912	0.304366	12407.456055
1806.842702	0.089854	0.304366	12487.246094
1806.843639	0.089982	0.304366	12571.558594
1806.844711	0.090015	0.304366	12668.054687
1806.845640	0.089890	0.304366	12751.562500
1806.846539	0.089883	0.304366	12832.367187
1806.847416	0.089916	0.304366	12911.223633
1806.848443	0.089945	0.304366	13003.597656
1807.798392	1.109905	0.346152	537.193909
1807.799288	1.528297	0.346152	1906.548096
1807.800163	1.512707	0.346152	3230.166992
1807.801107	1.471805	0.346152	4619.551270
1807.802117	1.429215	0.346152	6063.058594
1807.802996	1.393092	0.346152	7287.586426
1807.803885	1.356991	0.346152	8493.951172
1807.804991	1.318125	0.346152	9951.797852
1807.805878	1.286045	0.346152	11092.519531
1807.806746	1.122261	0.346152	12066.641602
1807.807780	0.133337	0.346152	12204.512695
1807.808754	0.089791	0.346152	12291.969727
1807.809629	0.089919	0.346152	12370.649414
1807.810508	0.089872	0.346152	12449.646484
1807.811601	0.090007	0.346152	12548.024414
1807.812507	0.089857	0.346152	12629.434570
1807.813374	0.089905	0.346152	12707.381836
1807.814430	0.090007	0.346152	12802.429687
1807.815392	0.089864	0.346152	12888.878906
1807.816266	0.089938	0.346152	12967.484375
1808.864413	1.135983	0.305172	577.079224
1808.865374	1.530948	0.305172	2048.320801
1808.866242	1.509071	0.305172	3358.194336
1808.867293	1.463525	0.305172	4896.359375
1808.868324	1.420536	0.305172	6360.931641
1808.869211	1.384237	0.305172	7588.750000
1808.870157	1.348246	0.305172	8864.190430
1808.871215	1.309266	0.305172	10249.394531
1808.872153	1.276527	0.305172	11446.777344
1808.873018	0.808301	0.305172	12145.957031
1808.874066	0.094969	0.305172	12245.485352
1808.875089	0.089919	0.305172	12337.472656
1808.875957	0.089974	0.305172	12415.570312
1808.876928	0.090029	0.305172	12502.988281
1808.877986	0.089967	0.305172	12598.173828
1808.878907	0.089894	0.305172	12680.965820
1808.879775	0.089967	0.305172	12759.057617
1808.880859	0.089974	0.305172	12856.589844
1808.881860	0.089952	0.305172	12946.631836
1808.882756	0.089908	0.305172	13027.189453
1809.833667	1.165162	0.345447	652.490906
1809.834722	1.530601	0.345447	2267.274414
1809.835612	1.502051	0.345447	3604.099609
1809.836504	1.463218	0.345447	4909.290039
1809.837367	1.425293	0.345447	6139.317871
1809.838425	1.384519	0.345447	7604.138672
1809.839298	1.349806	0.345447	8782.519531
1809.840184	1.317466	0.345447	9949.793945
1809.841185	1.282811	0.345447	11233.887695
1809.842126	0.925873	0.345447	12105.133789
1809.843052	0.108047	0.345447	12205.185547
1809.843915	0.089857	0.345447	12282.732422
1809.844951	0.089905	0.345447	12375.874023
1809.845846	0.089908	0.345447	12456.341797
1809.846726	0.089993	0.345447	12535.535156
1809.847704	0.089982	0.345447	12623.537109
1809.848657	0.089861	0.345447	12709.174805
1809.849538	0.089930	0.345447	12788.403320
1809.850458	0.089916	0.345447	12871.125977
1809.851515	0.089941	0.345447	12966.194336
1810.896812	1.133950	0.304519	612.333130
1810.897865	1.530699	0.304519	2224.159668
1810.898775	1.502314	0.304519	3591.265869
1810.899639	1.462921	0.304519	4855.229492
1810.900740	1.418273	0.304519	6416.748047
1810.901742	1.377850	0.304519	7797.354004
1810.902626	1.344181	0.304519	8985.609375
1810.903630	1.307941	0.304519	10298.782227
1810.904686	1.271514	0.304519	11641.500977
1810.905580	0.579364	0.304519	12159.452148
1810.906465	0.092670	0.304519	12241.464844
1810.907555	0.089890	0.304519	12339.445312
1810.908498	0.089886	0.304519	12424.208008
1810.909369	0.089945	0.304519	12502.549805
1810.910382	0.090055	0.304519	12593.775391
1810.911420	0.089923	0.304519	12687.115234
1810.912312	0.089886	0.304519	12767.293945
1810.913245	0.089919	0.304519	12851.188477
1810.914307	0.089960	0.304519	12946.725586
1810.915244	0.089945	0.304519	13031.003906
1811.869500	1.063063	0.343401	449.675507
1811.870583	1.529077	0.343401	2105.666016
1811.871581	1.501523	0.343401	3604.186523
1811.872482	1.462687	0.343401	4922.067383
1811.873473	1.421133	0.343401	6330.410156
1811.874538	1.378901	0.343401	7798.939941
1811.875435	1.343844	0.343401	9004.368164
1811.876314	1.310449	0.343401	10156.252930
1811.877428	1.272590	0.343401	11573.918945
1811.878404	0.555729	0.343401	12116.310547
1811.879272	0.092179	0.343401	12196.322266
1811.880319	0.089952	0.343401	12290.501953
1811.881329	0.089960	0.343401	12381.361328
1811.882211	0.089864	0.343401	12460.622070
1811.883088	0.089854	0.343401	12539.423828
1811.884035	0.089908	0.343401	12624.567383
1811.885032	0.089872	0.343401	12714.169922
1811.885956	0.089897	0.343401	12797.235352
1811.886812	0.089923	0.343401	12874.209961
1811.887826	0.090015	0.343401	12965.484375
1812.931097	1.124550	0.301704	567.897522
1812.931982	1.528920	0.301704	1920.991455
1812.932842	1.512572	0.301704	3221.803467
1812.933915	1.466169	0.301704	4795.003418
1812.934889	1.424960	0.301704	6182.914062
1812.935761	1.389459	0.301704	7394.522461
1812.936806	1.348905	0.301704	8804.127930
1812.937859	1.310442	0.301704	10184.023437
1812.938753	1.279003	0.301704	11327.452148
1812.939694	0.803071	0.301704	12083.142578
1812.940764	0.094014	0.301704	12183.737305
1812.941705	0.089912	0.301704	12268.344727
1812.942569	0.089952	0.301704	12346.063477
1812.943614	0.090059	0.301704	12440.174805
1812.944631	0.089897	0.301704	12531.600586
1812.945525	0.089901	0.301704	12611.972656
1812.946480	0.089967	0.301704	12697.891602
1812.947534	0.089982	0.301704	12792.732422
1812.948463	0.089923	0.301704	12876.270508
1812.949325	0.089868	0.301704	12953.737305
1813.904716	1.078605	0.341395	474.586060
1813.905592	1.525972	0.341395	1811.337280
1813.906599	1.510243	0.341395	3332.151855
1813.907653	1.464825	0.341395	4876.077637
1813.908546	1.426527	0.341395	6149.966309
1813.909407	1.389587	0.341395	7346.401367
1813.910524	1.348312	0.341395	8852.465820
1813.911494	1.312859	0.341395	10125.938477
1813.912354	1.282222	0.341395	11228.649414
1813.913390	0.802288	0.341395	12059.819336
1813.914439	0.094977	0.341395	12159.450195
1813.915318	0.089978	0.341395	12238.541016
1813.916247	0.089927	0.341395	12322.083008
1813.917321	0.089993	0.341395	12418.735352
1813.918265	0.089875	0.341395	12503.578125
1813.919136	0.089930	0.341395	12581.907227
1813.920190	0.089978	0.341395	12676.744141
1813.921207	0.089919	0.341395	12768.192383
1813.922100	0.089930	0.341395	12848.500000
1813.923060	0.090007	0.341395	12934.907227
1814.964357	1.125549	0.297288	548.142517
1814.965246	1.528594	0.297288	1907.062500
1814.966123	1.512561	0.297288	3233.578613
1814.967066	1.471670	0.297288	4621.363281
1814.968059	1.429669	0.297288	6041.024902
1814.968994	1.391766	0.297288	7342.326660
1814.969861	1.357606	0.297288	8519.371094
1814.970896	1.320337	0.297288	9885.919922
1814.971784	1.288187	0.297288	11029.830078
1814.972649	1.172351	0.297288	12043.914062
1814.973703	0.149583	0.297288	12201.574219
1814.974668	0.089846	0.297288	12288.275391
1814.975572	0.089875	0.297288	12369.522461
1814.976448	0.089916	0.297288	12448.289062
1814.977551	0.089912	0.297288	12547.461914
1814.978460	0.089843	0.297288	12629.128906
1814.979329	0.089938	0.297288	12707.285156
1814.980350	0.089938	0.297288	12799.111328
1814.981327	0.089897	0.297288	12886.941406
1814.982210	0.089857	0.297288	12966.285156
1815.939876	1.159405	0.335819	600.572021
1815.940916	1.530615	0.335819	2192.411865
1815.941811	1.503896	0.335819	3538.399170
1815.942747	1.462939	0.335819	4907.710449
1815.943818	1.418247	0.335819	6426.653320
1815.944761	1.380311	0.335819	7728.287109
1815.945628	1.346631	0.335819	8895.816406
1815.946688	1.308332	0.335819	10282.648437
1815.947708	1.272718	0.335819	11580.821289
1815.948611	0.635057	0.335819	12154.278320
1815.949575	0.093669	0.335819	12244.575195
1815.950629	0.089908	0.335819	12339.338867
1815.951549	0.089912	0.335819	12422.057617
1815.952412	0.089963	0.335819	12499.696289
1815.953493	0.090011	0.335819	12596.998047
1815.954492	0.089956	0.335819	12686.864258
1815.955365	0.089846	0.335819	12765.299805
1815.956365	0.089971	0.335819	12855.270508
1815.957402	0.089952	0.335819	12948.550781
1815.958304	0.089875	0.335819	13029.618164
1816.998337	1.053915	0.295600	447.913788
1816.999267	1.523829	0.295600	1865.075073
1817.000358	1.505306	0.295600	3507.364258
1817.001298	1.463873	0.295600	4883.405273
1817.002161	1.426901	0.295600	6114.820312
1817.003219	1.384493	0.295600	7579.614258
1817.004255	1.345020	0.295600	8973.054687
1817.005134	1.312299	0.295600	10126.565430
1817.006098	1.278834	0.295600	11359.361328
1817.007152	0.661047	0.295600	12056.105469
1817.008074	0.093157	0.295600	12141.996094
1817.008942	0.089934	0.295600	12220.058594
1817.010014	0.090018	0.295600	12316.558594
1817.011008	0.089952	0.295600	12405.971680
1817.011900	0.089982	0.295600	12486.235352
1817.012889	0.089978	0.295600	12575.223633
1817.013950	0.090022	0.295600	12670.737305
1817.014860	0.089952	0.295600	12752.593750
1817.015777	0.089956	0.295600	12835.083008
1817.016643	0.089952	0.295600	12912.981445
1817.974346	1.079106	0.331755	469.411316
1817.975233	1.526393	0.331755	1823.321777
1817.976098	1.513323	0.331755	3132.345947
1817.977221	1.467147	0.331755	4779.952148
1817.978126	1.428380	0.331755	6072.636230
1817.978995	1.391283	0.331755	7281.661133
1817.980104	1.350117	0.331755	8778.941406
1817.981075	1.314393	0.331755	10055.216797
1817.981941	1.283716	0.331755	11166.915039
1817.983006	0.826714	0.331755	12047.365234
1817.984041	0.095823	0.331755	12146.541992
1817.984922	0.089901	0.331755	12225.745117
1817.985839	0.089908	0.331755	12308.191406
1817.986905	0.089989	0.331755	12404.120117
1817.987849	0.089850	0.331755	12488.938477
1817.988709	0.089923	0.331755	12566.272461
1817.989757	0.090029	0.331755	12660.623047
1817.990775	0.089894	0.331755	12752.134766
1817.991650	0.089927	0.331755	12830.820312
1817.992591	0.090026	0.331755	12915.534180
1819.032453	1.091180	0.295351	543.407837
1819.033507	1.530161	0.295351	2156.197754
1819.034449	1.502659	0.295351	3571.702148
1819.035322	1.463950	0.295351	4849.730469
1819.036381	1.419749	0.295351	6353.244141
1819.037400	1.378700	0.295351	7758.139648
1819.038301	1.344437	0.295351	8969.477539
1819.039268	1.309460	0.295351	10235.725586
1819.040322	1.272477	0.295351	11576.916016
1819.041252	0.583729	0.295351	12119.784180
1819.042119	0.092750	0.295351	12200.198242
1819.043197	0.090037	0.295351	12297.257812
1819.044182	0.089923	0.295351	12385.832031
1819.045077	0.089927	0.295351	12466.316406
1819.046072	0.089996	0.295351	12555.862305
1819.047116	0.089993	0.295351	12649.814453
1819.048009	0.089934	0.295351	12730.125977
1819.048867	0.090022	0.295351	12807.365234
1819.049965	0.090018	0.295351	12906.205078
1819.050940	0.089952	0.295351	12993.908203
1820.009529	1.062638	0.330433	447.370575
1820.010580	1.530102	0.330433	2055.508301
1820.011478	1.507756	0.330433	3409.473633
1820.012358	1.469418	0.330433	4702.561035
1820.013347	1.428461	0.330433	6115.308594
1820.014311	1.388763	0.330433	7454.076660
1820.015197	1.354135	0.330433	8653.839844
1820.016131	1.319227	0.330433	9885.998047
1820.017201	1.282255	0.330433	11258.010742
1820.018085	0.976033	0.330433	12120.823242
1820.018955	0.123424	0.330433	12228.202148
1820.020001	0.089912	0.330433	12322.250000
1820.020954	0.089875	0.330433	12407.901367
1820.021832	0.089996	0.330433	12486.917969
1820.022762	0.090018	0.330433	12570.634766
1820.023809	0.090000	0.330433	12664.865234
1820.024703	0.089872	0.330433	12745.210937
1820.025563	0.089996	0.330433	12822.607422
1820.026612	0.089993	0.330433	12917.009766
1820.027558	0.089883	0.330433	13002.039062
1821.065774	1.130837	0.300616	611.783081
1821.066839	1.530264	0.300616	2241.513916
1821.067758	1.501197	0.300616	3621.114258
1821.068625	1.461852	0.300616	4888.540039
1821.069739	1.416464	0.300616	6466.480469
1821.070706	1.377521	0.300616	7798.542969
1821.071597	1.343822	0.300616	8995.888672
1821.072615	1.307051	0.300616	10326.466797
1821.073675	1.270217	0.300616	11672.897461
1821.074585	0.512076	0.300616	12138.886719
1821.075501	0.091893	0.300616	12223.060547
1821.076576	0.090088	0.300616	12319.905273
1821.077520	0.089982	0.300616	12404.847656
1821.078386	0.090000	0.300616	12482.788086
1821.079434	0.090066	0.300616	12577.176758
1821.080453	0.089993	0.300616	12668.878906
1821.081335	0.089927	0.300616	12748.194336
1821.082283	0.090084	0.300616	12833.593750
1821.083348	0.090051	0.300616	12929.498047
1821.084270	0.089967	0.300616	13012.447266
1822.044993	1.058123	0.330937	450.760193
1822.046036	1.528597	0.330937	2045.087402
1822.047062	1.502666	0.330937	3586.822754
1822.047955	1.463485	0.330937	4893.714844
1822.048932	1.423341	0.330937	6284.319336
1822.049979	1.380458	0.330937	7729.658691
1822.050908	1.344639	0.330937	8978.828125
1822.051772	1.312313	0.330937	10112.666992
1822.052843	1.275747	0.330937	11478.992187
1822.053857	0.596733	0.330937	12084.080078
1822.054740	0.092845	0.330937	12166.062500
1822.055734	0.090044	0.330937	12255.566406
1822.056776	0.090015	0.330937	12349.361328
1822.057667	0.090029	0.330937	12429.577148
1822.058531	0.090055	0.330937	12507.384766
1822.059616	0.090055	0.330937	12605.094727
1822.060589	0.089978	0.330937	12692.643555
1822.061513	0.089971	0.330937	12775.776367
1822.062391	0.089985	0.330937	12854.783203
1822.063378	0.090055	0.330937	12943.666992
1823.099319	1.068523	0.300422	449.848145
1823.100378	1.530590	0.300422	2070.742676
1823.101275	1.507441	0.300422	3422.917480
1823.102158	1.468759	0.300422	4719.831055
1823.103145	1.427900	0.300422	6129.168945
1823.104107	1.388144	0.300422	7464.563965
1823.104998	1.353746	0.300422	8670.751953
1823.105979	1.318044	0.300422	9963.753906
1823.106991	1.281951	0.300422	11261.087891
1823.107877	0.980786	0.300422	12130.064453
1823.108741	0.124969	0.300422	12238.038086
1823.109813	0.089967	0.300422	12334.482422
1823.110731	0.089960	0.300422	12417.065430
1823.111596	0.089993	0.300422	12494.909180
1823.112558	0.090084	0.300422	12581.570312
1823.113580	0.090055	0.300422	12673.606445
1823.114470	0.090018	0.300422	12753.722656
1823.115420	0.090070	0.300422	12839.289062
1823.116471	0.089985	0.300422	12933.863281
1823.117403	0.089985	0.300422	13017.729492
1824.079059	1.185381	0.328492	674.481689
1824.080104	1.530524	0.328492	2273.878906
1824.080983	1.501999	0.328492	3594.136475
1824.081931	1.460731	0.328492	4978.909668
1824.083010	1.415559	0.328492	6506.297852
1824.083957	1.377843	0.328492	7811.115234
1824.084826	1.344012	0.328492	8979.062500
1824.085863	1.306483	0.328492	10333.885742
1824.086889	1.270675	0.328492	11637.598633
1824.087789	0.573889	0.328492	12154.098633
1824.088747	0.092820	0.328492	12243.019531
1824.089796	0.090026	0.328492	12337.456055
1824.090720	0.090011	0.328492	12420.625977
1824.091583	0.090004	0.328492	12498.298828
1824.092673	0.090088	0.328492	12596.494141
1824.093659	0.089912	0.328492	12685.147461
1824.094551	0.090015	0.328492	12765.440430
1824.095545	0.090077	0.328492	12854.976562
1824.096587	0.090055	0.328492	12948.813477
1824.097488	0.090051	0.328492	13029.949219
1825.134314	1.082325	0.292289	503.281342
1825.135209	1.527224	0.292289	1870.146973
1825.136175	1.510049	0.292289	3328.854004
1825.137140	1.467806	0.292289	4745.287109
1825.138048	1.428823	0.292289	6042.658691
1825.138934	1.392730	0.292289	7276.617187
1825.139955	1.353486	0.292289	8658.526367
1825.140868	1.319561	0.292289	9863.285156
1825.141750	1.288345	0.292289	10999.605469
1825.142689	1.063191	0.292289	11997.941406
1825.143674	0.130946	0.292289	12126.922852
1825.144549	0.089927	0.292289	12205.608398
1825.145432	0.090011	0.292289	12285.087891
1825.146520	0.090011	0.292289	12383.019531
1825.147408	0.089967	0.292289	12462.910156
1825.148281	0.089989	0.292289	12541.470703
1825.149308	0.090026	0.292289	12633.926758
1825.150297	0.089963	0.292289	12722.900391
1825.151183	0.089971	0.292289	12802.614258
1825.152045	0.089949	0.292289	12880.150391
1826.113374	1.096234	0.330961	500.978973
1826.114253	1.526917	0.330961	1843.138672
1826.115226	1.510250	0.330961	3312.612305
1826.116287	1.464148	0.330961	4866.073242
1826.117216	1.424773	0.330961	6189.687500
1826.118082	1.388518	0.330961	7392.144043
1826.119179	1.347455	0.330961	8870.301758
1826.120168	1.311068	0.330961	10166.948242
1826.121061	1.279728	0.330961	11309.745117
1826.122060	0.775814	0.330961	12084.783203
1826.123105	0.094113	0.330961	12183.130859
1826.124000	0.089923	0.330961	12263.612305
1826.124855	0.089945	0.330961	12340.515625
1826.125949	0.090007	0.330961	12438.983398
1826.126913	0.089971	0.330961	12525.714844
1826.127776	0.090000	0.330961	12603.384766
1826.128832	0.090011	0.330961	12698.436523
1826.129870	0.089956	0.330961	12791.810547
1826.130749	0.089967	0.330961	12870.891602
1826.131654	0.089982	0.330961	12952.325195
1827.167937	1.066571	0.297655	455.425812
1827.169003	1.528835	0.297655	2085.164307
1827.169994	1.502677	0.297655	3574.317139
1827.170885	1.464108	0.297655	4878.836914
1827.171881	1.422817	0.297655	6295.962891
1827.172932	1.380168	0.297655	7746.520020
1827.173842	1.344961	0.297655	8970.434570
1827.174710	1.311764	0.297655	10109.045898
1827.175818	1.274447	0.297655	11521.132812
1827.176799	0.610323	0.297655	12119.860352
1827.177658	0.093237	0.297655	12199.951172
1827.178741	0.090022	0.297655	12297.445312
1827.179759	0.089949	0.297655	12389.012695
1827.180633	0.089967	0.297655	12467.643555
1827.181536	0.090000	0.297655	12548.913086
1827.182619	0.090018	0.297655	12646.403320
1827.183559	0.089905	0.297655	12730.914062
1827.184430	0.090011	0.297655	12809.313477
1827.185449	0.090026	0.297655	12901.049805
1827.186479	0.089941	0.297655	12993.689453
1828.147897	1.049780	0.330796	440.907715
1828.148875	1.524847	0.330796	1932.208496
1828.149883	1.505834	0.330796	3450.088867
1828.150773	1.467063	0.330796	4755.774902
1828.151770	1.425494	0.330796	6176.992676
1828.152832	1.382530	0.330796	7645.240234
1828.153744	1.346990	0.330796	8873.695312
1828.154611	1.313906	0.330796	10012.851562
1828.155722	1.276260	0.330796	11430.776367
1828.156701	0.693574	0.330796	12109.785156
1828.157566	0.095156	0.330796	12192.095703
1828.158650	0.090015	0.330796	12289.671875
1828.159686	0.089938	0.330796	12382.847656
1828.160576	0.089908	0.330796	12462.866211
1828.161502	0.090018	0.330796	12546.223633
1828.162568	0.089956	0.330796	12642.117187
1828.163510	0.089960	0.330796	12726.859375
1828.164372	0.089930	0.330796	12804.378906
1828.165424	0.090029	0.330796	12899.089844
1828.166444	0.089952	0.330796	12990.840820
1829.202340	1.145706	0.295170	590.038391
1829.203307	1.530806	0.295170	2070.327393
1829.204174	1.508573	0.295170	3378.260254
1829.205223	1.463082	0.295170	4913.033691
1829.206267	1.419247	0.295170	6394.727539
1829.207153	1.383131	0.295170	7620.181641
1829.208100	1.346927	0.295170	8895.721680
1829.209161	1.308164	0.295170	10283.683594
1829.210094	1.275385	0.295170	11473.617187
1829.210957	0.786002	0.295170	12151.937500
1829.211998	0.094171	0.295170	12249.969727
1829.213021	0.089978	0.295170	12342.017578
1829.213907	0.089974	0.295170	12421.734375
1829.214864	0.089985	0.295170	12507.850586
1829.215921	0.090048	0.295170	12603.031250
1829.216836	0.089875	0.295170	12685.267578
1829.217708	0.089952	0.295170	12763.706055
1829.218777	0.089982	0.295170	12859.896484
1829.219774	0.089875	0.295170	12949.501953
1829.220669	0.089916	0.295170	13029.976562
1830.183002	1.091580	0.325628	494.485596
1830.183883	1.526638	0.325628	1839.453857
1830.184757	1.514443	0.325628	3163.077393
1830.185770	1.471425	0.325628	4653.630371
1830.186709	1.430746	0.325628	5997.100586
1830.187595	1.394549	0.325628	7232.671387
1830.188559	1.357551	0.325628	8541.350586
1830.189584	1.319264	0.325628	9893.595703
1830.190467	1.287462	0.325628	11030.424805
1830.191339	1.122788	0.325628	12009.496094
1830.192391	0.137919	0.325628	12154.586914
1830.193335	0.089817	0.325628	12239.374023
1830.194209	0.089897	0.325628	12317.944336
1830.195156	0.090037	0.325628	12403.208984
1830.196187	0.089901	0.325628	12495.897461
1830.197077	0.089963	0.325628	12575.964844
1830.197938	0.089923	0.325628	12653.388672
1830.198998	0.090095	0.325628	12748.889648
1830.199941	0.089949	0.325628	12833.710937
1830.200808	0.089974	0.325628	12911.718750
1831.236445	1.075580	0.293184	481.859741
1831.237308	1.525719	0.293184	1798.555176
1831.238332	1.508511	0.293184	3343.270020
1831.239374	1.463331	0.293184	4868.061523
1831.240269	1.425568	0.293184	6143.944336
1831.241219	1.387496	0.293184	7462.065918
1831.242290	1.346081	0.293184	8903.718750
1831.243227	1.311669	0.293184	10132.751953
1831.244102	1.280453	0.293184	11253.148437
1831.245173	0.728141	0.293184	12032.987305
1831.246189	0.092498	0.293184	12126.964844
1831.247085	0.089982	0.293184	12207.588867
1831.248059	0.089974	0.293184	12295.223633
1831.249104	0.090000	0.293184	12389.273437
1831.250023	0.089857	0.293184	12471.852539
1831.250886	0.089945	0.293184	12549.475586
1831.251966	0.090026	0.293184	12646.703125
1831.252941	0.089956	0.293184	12734.410156
1831.253832	0.090011	0.293184	12814.610352
1831.254830	0.090033	0.293184	12904.462891
1832.217164	1.079509	0.318506	471.745544
1832.218025	1.524283	0.318506	1784.153564
1832.219133	1.506738	0.318506	3453.619629
1832.220023	1.467063	0.318506	4759.305664
1832.220899	1.430061	0.318506	6012.039062
1832.221919	1.389130	0.318506	7428.951172
1832.222914	1.350286	0.318506	8772.485352
1832.223798	1.317275	0.318506	9936.957031
1832.224666	1.285269	0.318506	11052.570312
1832.225782	0.873937	0.318506	12027.883789
1832.226689	0.103883	0.318506	12122.105469
1832.227570	0.089868	0.318506	12201.279297
1832.228559	0.090022	0.318506	12290.310547
1832.229558	0.090004	0.318506	12380.224609
1832.230458	0.089967	0.318506	12461.195312
1832.231438	0.090066	0.318506	12549.459961
1832.232491	0.089952	0.318506	12644.179687
1832.233384	0.089985	0.318506	12724.536133
1832.234241	0.089974	0.318506	12801.644531
1832.235335	0.090055	0.318506	12900.165039
1833.271563	1.127311	0.292664	556.891541
1833.272580	1.530623	0.292664	2113.534668
1833.273478	1.505720	0.292664	3465.671387
1833.274433	1.464375	0.292664	4864.149414
1833.275497	1.419382	0.292664	6374.372070
1833.276430	1.381732	0.292664	7663.528320
1833.277298	1.347649	0.292664	8833.287109
1833.278360	1.309574	0.292664	10224.054687
1833.279354	1.274659	0.292664	11491.066406
1833.280254	0.723886	0.292664	12142.563477
1833.281240	0.095980	0.292664	12237.200195
1833.282264	0.089956	0.292664	12329.315430
1833.283174	0.090084	0.292664	12411.291992
1833.284030	0.089971	0.292664	12488.306641
1833.285101	0.090099	0.292664	12584.802734
1833.286090	0.089894	0.292664	12673.708008
1833.286967	0.090004	0.292664	12752.641602
1833.287941	0.090081	0.292664	12840.379883
1833.289002	0.090004	0.292664	12935.874023
1833.289890	0.089894	0.292664	13015.700195
1834.250810	1.050099	0.322087	442.091644
1834.251742	1.523225	0.322087	1861.737427
1834.252739	1.508760	0.322087	3365.970947
1834.253657	1.468257	0.322087	4713.830566
1834.254541	1.431061	0.322087	5978.888184
1834.255565	1.390452	0.322087	7402.710937
1834.256475	1.354076	0.322087	8634.919922
1834.257353	1.321322	0.322087	9795.041016
1834.258371	1.286133	0.322087	11104.324219
1834.259370	0.969207	0.322087	12072.561523
1834.260250	0.120714	0.322087	12178.790039
1834.261114	0.089916	0.322087	12256.477539
1834.262193	0.089941	0.322087	12353.524414
1834.263111	0.089967	0.322087	12436.114258
1834.263991	0.090029	0.322087	12515.339844
1834.264978	0.090018	0.322087	12604.187500
1834.265970	0.089963	0.322087	12693.431641
1834.266862	0.089967	0.322087	12773.682617
1834.267835	0.090070	0.322087	12861.320312
1834.268883	0.090033	0.322087	12955.674805
