time (s)	coil I (A)	last det (V)	int current (uC)
8257.317354	0.561757	0.179096	252.228714
8257.318215	0.278123	0.179096	491.692261
8257.319321	0.287179	0.179096	809.312134
8257.320326	0.283228	0.179096	1093.955811
8257.321202	0.272285	0.179096	1332.477661
8257.322189	0.254377	0.179096	1583.548218
8257.323256	0.245065	0.179096	1845.032227
8257.324169	0.239495	0.179096	2063.690918
8257.325037	0.090238	0.179096	2142.017578
8257.326148	0.091230	0.179096	2243.374512
8257.327113	0.091260	0.179096	2331.440186
8257.327981	0.091219	0.179096	2410.618652
8257.329055	0.090897	0.179096	2508.242187
8257.330096	0.090809	0.179096	2602.774658
8257.330984	0.090916	0.179096	2683.507568
8257.331904	0.090645	0.179096	2766.900635
8257.332973	0.090491	0.179096	2863.635254
8257.333927	0.090403	0.179096	2949.879639
8258.298971	0.457873	0.200736	261.903625
8258.300024	0.282902	0.200736	559.799011
8258.300918	0.288204	0.200736	817.453735
8258.301856	0.283821	0.200736	1083.677612
8258.302925	0.269736	0.200736	1372.025757
8258.303862	0.251763	0.200736	1607.927490
8258.304725	0.245581	0.200736	1819.863892
8258.305805	0.210297	0.200736	2046.984253
8258.306812	0.090901	0.200736	2138.521484
8258.307682	0.091780	0.200736	2218.369873
8258.308646	0.091425	0.200736	2306.503174
8258.309700	0.091154	0.200736	2402.579102
8258.310613	0.091333	0.200736	2485.966064
8258.311477	0.090938	0.200736	2564.536133
8258.312546	0.090659	0.200736	2661.450684
8258.313549	0.090557	0.200736	2752.279053
8258.314442	0.090648	0.200736	2833.227783
8258.315428	0.090699	0.200736	2922.657471
8259.346899	0.589149	0.187282	262.171387
8259.347773	0.278416	0.187282	505.506561
8259.348804	0.287673	0.187282	802.097778
8259.349860	0.284366	0.187282	1102.388794
8259.350741	0.273655	0.187282	1343.478638
8259.351648	0.256699	0.187282	1576.304810
8259.352715	0.245508	0.187282	1838.261719
8259.353683	0.257604	0.187282	2087.622070
8259.354551	0.090454	0.187282	2166.136230
8259.355580	0.091267	0.187282	2260.050049
8259.356602	0.091604	0.187282	2353.669434
8259.357494	0.091505	0.187282	2435.291992
8259.358434	0.091157	0.187282	2520.979736
8259.359495	0.090776	0.187282	2617.293457
8259.360430	0.090916	0.187282	2702.299561
8259.361293	0.090688	0.187282	2780.563721
8259.362338	0.090542	0.187282	2875.180176
8259.363355	0.090612	0.187282	2967.332031
8260.345430	0.457485	0.188559	261.681641
8260.346480	0.282660	0.188559	558.474548
8260.347363	0.288241	0.188559	812.991333
8260.348285	0.283956	0.188559	1074.799072
8260.349367	0.269608	0.188559	1366.515137
8260.350316	0.251514	0.188559	1605.201660
8260.351186	0.245398	0.188559	1818.697876
8260.352233	0.216042	0.188559	2044.894287
8260.353255	0.090692	0.188559	2137.581543
8260.354146	0.091498	0.188559	2219.106201
8260.355115	0.091256	0.188559	2307.533447
8260.356172	0.091062	0.188559	2403.785889
8260.357093	0.091337	0.188559	2487.906982
8260.357952	0.090875	0.188559	2565.968750
8260.359039	0.090740	0.188559	2664.602783
8260.360029	0.090703	0.188559	2754.398926
8260.360918	0.090820	0.188559	2835.138184
8260.361901	0.090546	0.188559	2924.144531
8261.374395	0.630121	0.189473	267.171265
8261.375459	0.281301	0.189473	566.475830
8261.376480	0.288406	0.189473	860.938110
8261.377364	0.284641	0.189473	1112.560791
8261.378347	0.272454	0.189473	1380.382690
8261.379407	0.252762	0.189473	1648.310913
8261.380323	0.245691	0.189473	1873.363770
8261.381190	0.269187	0.189473	2106.749023
8261.382266	0.090615	0.189473	2204.250977
8261.383249	0.091439	0.189473	2294.135742
8261.384137	0.091578	0.189473	2375.457275
8261.385117	0.091212	0.189473	2464.845215
8261.386173	0.091176	0.189473	2561.126465
8261.387080	0.091282	0.189473	2643.918945
8261.387941	0.090905	0.189473	2722.187744
8261.389044	0.090667	0.189473	2822.192871
8261.390006	0.090762	0.189473	2909.505615
8261.390884	0.090985	0.189473	2989.390625
8262.391237	0.616750	0.178367	265.819458
8262.392098	0.278958	0.178367	506.001892
8262.393161	0.288450	0.178367	812.623901
8262.394048	0.285897	0.178367	1066.214722
8262.394921	0.276566	0.178367	1307.656982
8262.395918	0.258937	0.178367	1565.816895
8262.396854	0.246482	0.178367	1796.523926
8262.397773	0.295935	0.178367	2068.488281
8262.398657	0.090465	0.178367	2148.459473
8262.399697	0.091278	0.178367	2243.388672
8262.400587	0.091490	0.178367	2324.815186
8262.401457	0.091461	0.178367	2404.386475
8262.402418	0.091179	0.178367	2492.009766
8262.403382	0.091146	0.178367	2579.874756
8262.404301	0.091084	0.178367	2663.581055
8262.405169	0.090952	0.178367	2742.527588
8262.406200	0.090487	0.178367	2835.819824
8262.407083	0.090780	0.178367	2915.978516
8263.403968	0.644095	0.205389	274.384644
8263.404982	0.280466	0.205389	558.777466
8263.406038	0.288688	0.205389	863.631714
8263.406935	0.284755	0.205389	1119.056641
8263.407801	0.273285	0.205389	1355.721436
8263.408903	0.254074	0.205389	1635.710449
8263.409861	0.246039	0.205389	1871.415649
8263.410725	0.277361	0.205389	2111.055420
8263.411775	0.090538	0.205389	2206.120605
8263.412816	0.091285	0.205389	2301.148682
8263.413686	0.092223	0.205389	2381.382568
8263.414606	0.091447	0.205389	2465.513428
8263.415669	0.091029	0.205389	2562.277344
8263.416610	0.090978	0.205389	2647.887451
8263.417480	0.091234	0.205389	2727.261230
8263.418500	0.090835	0.205389	2819.912842
8263.419526	0.091003	0.205389	2913.282227
8263.420412	0.090835	0.205389	2993.761963
8264.434108	0.630571	0.180168	268.623383
8264.435159	0.281327	0.180168	564.297974
8264.436183	0.288655	0.180168	859.880493
8264.437078	0.284974	0.180168	1114.932617
8264.438047	0.272794	0.180168	1379.270142
8264.439095	0.253517	0.180168	1644.955811
8264.440011	0.246006	0.180168	1870.297241
8264.440881	0.251162	0.180168	2088.808350
8264.441970	0.090593	0.180168	2187.464355
8264.442960	0.091626	0.180168	2278.174072
8264.443834	0.091582	0.180168	2358.216797
8264.444825	0.091198	0.180168	2448.593506
8264.445855	0.090989	0.180168	2542.312012
8264.446753	0.091128	0.180168	2624.145020
8264.447608	0.091058	0.180168	2702.000000
8264.448692	0.090817	0.180168	2800.445312
8264.449685	0.090824	0.180168	2890.633545
8264.450578	0.090710	0.180168	2971.637939
8265.436628	0.589885	0.214864	260.139374
8265.437491	0.279016	0.214864	500.930267
8265.438597	0.288534	0.214864	820.048828
8265.439592	0.284886	0.214864	1103.510864
8265.440473	0.274270	0.214864	1345.142822
8265.441486	0.255967	0.214864	1604.437134
8265.442555	0.246020	0.214864	1867.433105
8265.443444	0.258593	0.214864	2097.321777
8265.444329	0.090718	0.214864	2177.606934
8265.445428	0.091359	0.214864	2278.010010
8265.446371	0.091725	0.214864	2364.506592
8265.447241	0.091545	0.214864	2444.151123
8265.448260	0.091073	0.214864	2536.954590
8265.449293	0.091135	0.214864	2631.097412
8265.450181	0.091479	0.214864	2712.331299
8265.451113	0.090809	0.214864	2796.965576
8265.452187	0.090571	0.214864	2894.239258
8265.453120	0.090787	0.214864	2978.943848
8266.473411	0.644026	0.176953	275.643066
8266.474364	0.279240	0.176953	541.758301
8266.475427	0.288252	0.176953	848.170166
8266.476370	0.284733	0.176953	1116.673096
8266.477236	0.274222	0.176953	1354.149658
8266.478292	0.255095	0.176953	1623.530273
8266.479319	0.245760	0.176953	1875.926270
8266.480214	0.267264	0.176953	2115.127930
8266.481178	0.090619	0.176953	2202.484619
8266.482234	0.091388	0.176953	2298.990234
8266.483142	0.091578	0.176953	2382.143311
8266.484014	0.091523	0.176953	2461.951660
8266.485111	0.090978	0.176953	2561.754395
8266.486101	0.091077	0.176953	2651.920410
8266.486997	0.091381	0.176953	2733.797363
8266.487989	0.090747	0.176953	2823.818359
8266.489037	0.090967	0.176953	2919.151611
8266.489936	0.090824	0.176953	3000.802246
8267.472387	0.562965	0.222493	280.919586
8267.473268	0.279972	0.222493	527.574829
8267.474190	0.288193	0.222493	793.289124
8267.475265	0.285015	0.222493	1099.679932
8267.476211	0.273523	0.222493	1358.432617
8267.477076	0.257142	0.222493	1580.860718
8267.478138	0.246229	0.222493	1842.356201
8267.479172	0.229460	0.222493	2079.618164
8267.480046	0.090707	0.222493	2158.895996
8267.480993	0.091395	0.222493	2245.447266
8267.482045	0.091344	0.222493	2341.541260
8267.482980	0.091296	0.222493	2426.903320
8267.483842	0.091132	0.222493	2505.458740
8267.484882	0.090820	0.222493	2599.911865
8267.485891	0.090857	0.222493	2691.586426
8267.486778	0.091051	0.222493	2772.348633
8267.487733	0.090659	0.222493	2858.928223
8267.488802	0.090681	0.222493	2955.866455
8268.511298	0.498768	0.178327	272.327484
8268.512340	0.283304	0.178327	567.530762
8268.513221	0.288907	0.178327	822.058228
8268.514152	0.284949	0.178327	1087.345459
8268.515221	0.271392	0.178327	1377.463135
8268.516157	0.253524	0.178327	1614.761719
8268.517024	0.246189	0.178327	1828.207520
8268.518093	0.230559	0.178327	2074.675293
8268.519110	0.090963	0.178327	2167.184814
8268.519979	0.091688	0.178327	2246.861816
8268.520949	0.091370	0.178327	2335.490234
8268.521996	0.091223	0.178327	2431.000977
8268.522921	0.091230	0.178327	2515.389160
8268.523789	0.091201	0.178327	2594.551758
8268.524867	0.090948	0.178327	2692.594238
8268.525864	0.090875	0.178327	2783.196777
8268.526755	0.091044	0.178327	2864.316650
8268.527719	0.090718	0.178327	2951.768555
8269.508621	0.579364	0.221969	291.999451
8269.509535	0.281169	0.221969	548.988281
8269.510399	0.288735	0.221969	798.455627
8269.511470	0.285414	0.221969	1104.133789
8269.512468	0.273029	0.221969	1376.616211
8269.513366	0.256307	0.221969	1606.780273
8269.514353	0.246357	0.221969	1849.935059
8269.515425	0.225432	0.221969	2091.598389
8269.516322	0.090850	0.221969	2173.090576
8269.517190	0.091553	0.221969	2252.558350
8269.518319	0.091311	0.221969	2355.648437
8269.519273	0.091458	0.221969	2442.898926
8269.520141	0.091626	0.221969	2522.430176
8269.521206	0.090908	0.221969	2619.247314
8269.522236	0.091260	0.221969	2713.244873
8269.523129	0.091084	0.221969	2794.582764
8269.524059	0.090736	0.221969	2878.967285
8269.525111	0.090568	0.221969	2974.244385
8270.548492	0.579159	0.179020	291.316956
8270.549394	0.280280	0.179020	544.129089
8270.550266	0.288197	0.179020	795.436890
8270.551348	0.285018	0.179020	1103.826660
8270.552358	0.272527	0.179020	1379.078857
8270.553259	0.255582	0.179020	1609.358521
8270.554265	0.245936	0.179020	1856.770386
8270.555325	0.233251	0.179020	2104.016113
8270.556224	0.090875	0.179020	2185.712891
8270.557087	0.091805	0.179020	2264.940918
8270.558205	0.091293	0.179020	2367.006104
8270.559164	0.091498	0.179020	2454.752441
8270.560030	0.091165	0.179020	2533.700928
8270.561068	0.090861	0.179020	2628.014160
8270.562104	0.091091	0.179020	2722.384766
8270.562991	0.091062	0.179020	2803.156738
8270.563908	0.090784	0.179020	2886.405273
8270.564970	0.090542	0.179020	2982.560791
8271.545343	0.578796	0.227086	285.925415
8271.546219	0.280111	0.227086	531.302734
8271.547162	0.288582	0.227086	803.435181
8271.548263	0.285128	0.227086	1117.361328
8271.549196	0.273197	0.227086	1372.254150
8271.550058	0.256732	0.227086	1593.557251
8271.551110	0.246313	0.227086	1852.679077
8271.552139	0.260511	0.227086	2120.745361
8271.553034	0.090725	0.227086	2201.944336
8271.554001	0.091498	0.227086	2290.422607
8271.555063	0.091549	0.227086	2387.647705
8271.555970	0.091252	0.227086	2470.413574
8271.556835	0.091348	0.227086	2549.429199
8271.557918	0.090916	0.227086	2647.890625
8271.558908	0.091113	0.227086	2738.092773
8271.559799	0.091000	0.227086	2819.173584
8271.560776	0.090791	0.227086	2907.876465
8271.561830	0.090729	0.227086	3003.504639
8272.584714	0.579185	0.180570	289.592285
8272.585660	0.281114	0.180570	555.526611
8272.586529	0.288340	0.180570	806.093933
8272.587576	0.284967	0.180570	1104.454346
8272.588603	0.272168	0.180570	1383.970825
8272.589504	0.255212	0.180570	1613.917236
8272.590430	0.246251	0.180570	1841.945923
8272.591306	0.274065	0.180570	2082.026855
8272.592283	0.090575	0.180570	2170.518555
8272.593205	0.091337	0.180570	2254.730957
8272.594074	0.091567	0.180570	2334.302979
8272.595073	0.091146	0.180570	2425.358154
8272.595980	0.091381	0.180570	2508.240479
8272.596897	0.091212	0.180570	2591.882080
8272.597757	0.090938	0.180570	2670.088379
8272.598802	0.090890	0.180570	2765.068359
8272.599685	0.091113	0.180570	2845.521484
8272.600604	0.090945	0.180570	2929.099854
8273.582540	0.565411	0.218622	249.911835
8273.583467	0.280507	0.218622	509.941437
8273.584337	0.288853	0.218622	761.243164
8273.585397	0.286219	0.218622	1064.635742
8273.586299	0.276017	0.218622	1313.602905
8273.587181	0.259951	0.218622	1542.879883
8273.588201	0.246903	0.218622	1794.721069
8273.589128	0.297634	0.218622	2070.627930
8273.590059	0.090923	0.218622	2155.277100
8273.590919	0.091190	0.218622	2233.700684
8273.591952	0.091538	0.218622	2328.259521
8273.592827	0.091567	0.218622	2408.380859
8273.593692	0.091512	0.218622	2487.539062
8273.594663	0.091044	0.218622	2575.942383
8273.595619	0.091285	0.218622	2663.211182
8273.596545	0.091212	0.218622	2747.673584
8273.597424	0.091088	0.218622	2827.739746
8273.598457	0.091029	0.218622	2921.772705
8274.621451	0.568656	0.176139	284.896667
8274.622359	0.281056	0.176139	540.095459
8274.623235	0.288842	0.176139	793.120667
8274.624233	0.285945	0.176139	1078.493652
8274.625256	0.273574	0.176139	1358.360107
8274.626146	0.256860	0.176139	1586.965820
8274.627011	0.246639	0.176139	1800.308960
8274.628104	0.255249	0.176139	2079.296143
8274.629005	0.091194	0.176139	2161.461914
8274.629870	0.091699	0.176139	2240.781738
8274.630866	0.091531	0.176139	2331.946289
8274.631868	0.091527	0.176139	2423.656494
8274.632746	0.091326	0.176139	2503.840332
8274.633613	0.091201	0.176139	2582.911865
8274.634665	0.090970	0.176139	2678.612793
8274.635591	0.091102	0.176139	2762.973633
8274.636465	0.091099	0.176139	2842.593750
8274.637414	0.090857	0.176139	2928.816895
8275.620279	0.644993	0.215979	270.896942
8275.621372	0.281503	0.215979	578.579346
8275.622271	0.288479	0.215979	837.921997
8275.623150	0.285623	0.215979	1088.984253
8275.624162	0.273417	0.215979	1365.682007
8275.625169	0.254293	0.215979	1621.755249
8275.626062	0.246061	0.215979	1841.487549
8275.626931	0.265085	0.215979	2071.846924
8275.628045	0.090593	0.215979	2172.767822
8275.628960	0.091556	0.215979	2256.541992
8275.629826	0.091718	0.215979	2335.969482
8275.630909	0.091260	0.215979	2434.803711
8275.631894	0.090996	0.215979	2524.434814
8275.632790	0.091223	0.215979	2606.170654
8275.633786	0.090959	0.215979	2696.766357
8275.634819	0.090688	0.215979	2790.447510
8275.635713	0.090905	0.215979	2871.716064
8275.636582	0.090751	0.215979	2950.578369
8276.657199	0.520975	0.171624	276.637878
8276.658245	0.283099	0.171624	572.759766
8276.659122	0.289039	0.171624	826.247253
8276.660075	0.284974	0.171624	1097.827881
8276.661135	0.271260	0.171624	1385.363281
8276.662063	0.253411	0.171624	1620.528320
8276.662933	0.246226	0.171624	1834.744629
8276.663999	0.229940	0.171624	2079.860840
8276.665017	0.090776	0.171624	2172.271240
8276.665910	0.091494	0.171624	2253.975586
8276.666884	0.091370	0.171624	2342.969727
8276.667932	0.091238	0.171624	2438.586914
8276.668844	0.091487	0.171624	2522.022949
8276.669706	0.091069	0.171624	2600.524658
8276.670792	0.090769	0.171624	2699.099854
8276.671783	0.090703	0.171624	2788.986572
8276.672681	0.091121	0.171624	2870.812988
8276.673688	0.090615	0.171624	2962.062500
8277.660215	0.551386	0.216789	303.813416
8277.661272	0.283436	0.216789	603.405579
8277.662171	0.288783	0.216789	863.021484
8277.663043	0.284495	0.216789	1111.100830
8277.664162	0.270150	0.216789	1413.398926
8277.665125	0.251927	0.216789	1656.005127
8277.665990	0.246028	0.216789	1868.819214
8277.667024	0.226080	0.216789	2102.586182
8277.668062	0.090996	0.216789	2197.040039
8277.668938	0.091501	0.216789	2277.195312
8277.669860	0.091469	0.216789	2361.529297
8277.670952	0.091146	0.216789	2461.061035
8277.671892	0.091143	0.216789	2546.735107
8277.672759	0.091340	0.216789	2625.927246
8277.673784	0.090776	0.216789	2718.972900
8277.674804	0.090963	0.216789	2811.755371
8277.675694	0.091091	0.216789	2892.826660
8277.676663	0.090612	0.216789	2980.629395
8278.690338	0.513831	0.169529	266.678040
8278.691380	0.282682	0.169529	561.232544
8278.692273	0.288578	0.169529	818.932617
8278.693243	0.284323	0.169529	1094.725464
8278.694302	0.270432	0.169529	1381.113037
8278.695234	0.252568	0.169529	1616.506714
8278.696101	0.245852	0.169529	1829.660400
8278.697163	0.219774	0.169529	2063.060547
8278.698160	0.090505	0.169529	2153.294434
8278.699044	0.091597	0.169529	2234.265869
8278.700041	0.091395	0.169529	2325.386963
8278.701076	0.091208	0.169529	2419.787842
8278.701977	0.091395	0.169529	2502.135010
8278.702834	0.091198	0.169529	2580.291260
8278.703908	0.090758	0.169529	2677.765381
8278.704888	0.090656	0.169529	2766.607666
8278.705763	0.090846	0.169529	2846.097900
8278.706748	0.090615	0.169529	2935.354004
8279.701458	0.589790	0.210702	261.276978
8279.702329	0.279302	0.210702	504.548828
8279.703316	0.288655	0.210702	789.451050
8279.704396	0.285146	0.210702	1097.409180
8279.705297	0.274138	0.210702	1344.407715
8279.706168	0.257062	0.210702	1568.308472
8279.707277	0.246284	0.210702	1841.437622
8279.708255	0.247965	0.210702	2083.947510
8279.709125	0.090615	0.210702	2162.782715
8279.710141	0.091344	0.210702	2255.588135
8279.711180	0.091516	0.210702	2350.673340
8279.712070	0.091750	0.210702	2432.331299
8279.712990	0.091366	0.210702	2516.387939
8279.714070	0.091025	0.210702	2614.695312
8279.715013	0.090974	0.210702	2700.483887
8279.715875	0.091077	0.210702	2778.991943
8279.716933	0.090703	0.210702	2874.955811
8279.717951	0.090692	0.210702	2967.280518
8280.719911	0.538619	0.179580	288.161377
8280.720991	0.283085	0.179580	593.892883
8280.721892	0.288735	0.179580	854.043457
8280.722810	0.284663	0.179580	1115.364136
8280.723687	0.273680	0.179580	1355.381836
8280.724687	0.254663	0.179580	1610.044922
8280.725646	0.246006	0.179580	1845.964600
8280.726541	0.270615	0.179580	2088.165283
8280.727534	0.090359	0.179580	2177.891602
8280.728445	0.091417	0.179580	2261.172607
8280.729355	0.091747	0.179580	2344.662109
8280.730226	0.091648	0.179580	2424.487549
8280.731188	0.091205	0.179580	2512.226562
8280.732125	0.091377	0.179580	2597.846680
8280.733007	0.091447	0.179580	2678.502441
8280.733954	0.090908	0.179580	2764.592529
8280.734916	0.090872	0.179580	2852.010986
8280.735837	0.090919	0.179580	2935.747559
8281.747022	0.486273	0.198863	275.716888
8281.748001	0.282664	0.198863	552.444519
8281.748878	0.288512	0.198863	805.469482
8281.749744	0.284993	0.198863	1052.273193
8281.750871	0.271688	0.198863	1358.465820
8281.751779	0.254194	0.198863	1589.274292
8281.752646	0.246141	0.198863	1802.678833
8281.753718	0.240044	0.198863	2060.005859
8281.754689	0.090699	0.198863	2148.074951
8281.755566	0.091754	0.198863	2228.543457
8281.756436	0.091498	0.198863	2308.146484
8281.757541	0.091344	0.198863	2409.081543
8281.758436	0.091230	0.198863	2490.732910
8281.759297	0.091227	0.198863	2569.279297
8281.760376	0.090831	0.198863	2667.286377
8281.761346	0.090861	0.198863	2755.421143
8281.762214	0.090919	0.198863	2834.339111
8281.763081	0.090725	0.198863	2912.997803
8282.747423	0.537356	0.191052	271.902130
8282.748315	0.280642	0.191052	522.234863
8282.749188	0.288479	0.191052	774.077026
8282.750214	0.285696	0.191052	1067.200928
8282.751203	0.273893	0.191052	1338.080933
8282.752086	0.257333	0.191052	1565.305786
8282.753097	0.246240	0.191052	1814.254639
8282.754152	0.243838	0.191052	2071.503662
8282.755031	0.090696	0.191052	2151.225342
8282.755912	0.091384	0.191052	2231.734863
8282.757013	0.091355	0.191052	2332.316650
8282.757968	0.091351	0.191052	2419.557129
8282.758838	0.091370	0.191052	2499.048828
8282.759853	0.090857	0.191052	2591.268555
8282.760890	0.090762	0.191052	2685.388428
8282.761775	0.091187	0.191052	2766.088379
8282.762702	0.090919	0.191052	2850.370361
8282.763757	0.090667	0.191052	2946.023437
8283.793422	0.579554	0.194408	294.413666
8283.794417	0.282404	0.194408	575.405212
8283.795310	0.289028	0.194408	833.507507
8283.796307	0.285300	0.194408	1117.951904
8283.797361	0.271915	0.194408	1404.550659
8283.798246	0.254454	0.194408	1629.742798
8283.799130	0.246156	0.194408	1847.344727
8283.800221	0.227139	0.194408	2095.153076
8283.801172	0.090842	0.194408	2181.544189
8283.802029	0.091450	0.194408	2259.916992
8283.803063	0.091436	0.194408	2354.461426
8283.804094	0.091234	0.194408	2448.523926
8283.804972	0.091190	0.194408	2528.588867
8283.805885	0.091003	0.194408	2611.675049
8283.806960	0.090802	0.194408	2709.287109
8283.807910	0.091029	0.194408	2795.764648
8283.808781	0.090872	0.194408	2874.913818
8283.809804	0.090674	0.194408	2967.673096
8284.777923	0.644571	0.203508	277.810303
8284.778790	0.279100	0.203508	519.790283
8284.779876	0.288721	0.203508	833.340942
8284.780883	0.285136	0.203508	1120.472412
8284.781775	0.274160	0.203508	1365.023315
8284.782770	0.256011	0.203508	1619.754028
8284.783817	0.245951	0.203508	1877.264648
8284.784732	0.248628	0.203508	2104.759277
8284.785590	0.090377	0.203508	2182.302979
8284.786686	0.091344	0.203508	2282.416016
8284.787688	0.091370	0.203508	2373.968262
8284.788563	0.091498	0.203508	2454.028809
8284.789580	0.091058	0.203508	2546.635254
8284.790614	0.091121	0.203508	2640.854004
8284.791485	0.091055	0.203508	2720.162598
8284.792372	0.090853	0.203508	2800.749512
8284.793469	0.090648	0.203508	2900.190674
8284.794436	0.090586	0.203508	2987.787354
8285.833742	0.579141	0.192869	291.886871
8285.834640	0.280525	0.192869	543.798218
8285.835506	0.288527	0.192869	793.662231
8285.836623	0.284927	0.192869	1111.925415
8285.837600	0.272721	0.192869	1378.373779
8285.838459	0.256146	0.192869	1598.403442
8285.839548	0.246061	0.192869	1866.363647
8285.840595	0.227014	0.192869	2104.047363
8285.841470	0.090509	0.192869	2183.242676
8285.842400	0.091630	0.192869	2268.458252
8285.843477	0.091289	0.192869	2366.776611
8285.844410	0.091414	0.192869	2452.065430
8285.845281	0.091351	0.192869	2531.632324
8285.846311	0.090952	0.192869	2625.312988
8285.847345	0.090883	0.192869	2719.285645
8285.848234	0.090945	0.192869	2800.135498
8285.849184	0.090780	0.192869	2886.376465
8285.850243	0.090637	0.192869	2982.361328
8286.814645	0.652643	0.222517	274.109985
8286.815529	0.279064	0.222517	520.802307
8286.816624	0.288724	0.222517	836.955444
8286.817580	0.285319	0.222517	1109.719971
8286.818453	0.274845	0.222517	1349.659668
8286.819499	0.255685	0.222517	1617.105957
8286.820536	0.245955	0.222517	1872.160889
8286.821440	0.254498	0.222517	2102.227295
8286.822390	0.090637	0.222517	2188.332520
8286.823430	0.091362	0.222517	2283.349365
8286.824357	0.091857	0.222517	2368.500488
8286.825221	0.091355	0.222517	2447.431152
8286.826269	0.090989	0.222517	2542.787354
8286.827285	0.091073	0.222517	2635.317627
8286.828162	0.091091	0.222517	2715.204590
8286.829139	0.090787	0.222517	2803.903809
8286.830189	0.090696	0.222517	2899.134521
8286.831098	0.090912	0.222517	2981.773437
8287.866882	0.578899	0.191673	285.397156
8287.867777	0.280983	0.191673	536.876648
8287.868644	0.289193	0.191673	787.607056
8287.869743	0.285817	0.191673	1101.719482
8287.870720	0.273743	0.191673	1369.166016
8287.871593	0.257161	0.191673	1593.667236
8287.872660	0.246464	0.191673	1856.643921
8287.873713	0.223077	0.191673	2091.544434
8287.874600	0.091011	0.191673	2172.270996
8287.875519	0.091641	0.191673	2256.488770
8287.876589	0.091586	0.191673	2354.485352
8287.877538	0.091868	0.191673	2441.667725
8287.878397	0.091366	0.191673	2520.151123
8287.879449	0.090930	0.191673	2615.809570
8287.880463	0.090941	0.191673	2708.023926
8287.881350	0.090992	0.191673	2788.734131
8287.882314	0.090747	0.191673	2876.214355
8287.883355	0.090604	0.191673	2970.533447
8288.860170	0.578925	0.217651	291.199066
8288.861056	0.280627	0.217651	539.834961
8288.861937	0.288545	0.217651	794.043030
8288.863035	0.285385	0.217651	1107.395264
8288.864001	0.273611	0.217651	1371.703369
8288.864867	0.257139	0.217651	1594.385498
8288.865909	0.246511	0.217651	1851.250244
8288.866934	0.226263	0.217651	2083.170166
8288.867818	0.090714	0.217651	2163.361328
8288.868739	0.091476	0.217651	2247.610596
8288.869824	0.091479	0.217651	2346.865723
8288.870757	0.091406	0.217651	2432.147705
8288.871617	0.091252	0.217651	2510.624756
8288.872652	0.091029	0.217651	2604.839844
8288.873686	0.090769	0.217651	2698.695068
8288.874563	0.091124	0.217651	2778.611084
8288.875513	0.090659	0.217651	2864.737305
8288.876565	0.090579	0.217651	2960.025879
8289.892404	0.499325	0.203435	273.630066
8289.893461	0.283477	0.203435	573.264771
8289.894356	0.288966	0.203435	831.889404
8289.895274	0.284685	0.203435	1093.230225
8289.896356	0.270630	0.203435	1386.051758
8289.897307	0.252568	0.203435	1626.244263
8289.898182	0.246156	0.203435	1841.630737
8289.899235	0.216533	0.203435	2069.640137
8289.900260	0.090795	0.203435	2162.704590
8289.901153	0.091725	0.203435	2244.614990
8289.902101	0.091443	0.203435	2331.302734
8289.903161	0.091201	0.203435	2427.976074
8289.904087	0.091465	0.203435	2512.672607
8289.904951	0.091223	0.203435	2591.489502
8289.906024	0.090813	0.203435	2688.931885
8289.907014	0.090688	0.203435	2778.713379
8289.907894	0.090974	0.203435	2858.770508
8289.908886	0.090699	0.203435	2948.744385
8290.908096	0.630498	0.201630	270.483673
8290.908963	0.278727	0.201630	512.139832
8290.910009	0.288545	0.201630	813.957825
8290.910911	0.286333	0.201630	1072.230225
8290.911791	0.276328	0.201630	1315.398926
8290.912699	0.259889	0.201630	1551.378052
8290.913724	0.246489	0.201630	1804.029541
8290.914619	0.299359	0.201630	2071.956055
8290.915489	0.090282	0.201630	2150.501465
8290.916505	0.091282	0.201630	2243.243652
8290.917408	0.091699	0.201630	2326.048096
8290.918308	0.091333	0.201630	2408.247803
8290.919185	0.091194	0.201630	2488.224854
8290.920231	0.091051	0.201630	2583.464111
8290.921131	0.090798	0.201630	2665.182617
8290.922007	0.091212	0.201630	2745.084473
8290.922978	0.090817	0.201630	2833.267334
8290.923926	0.090604	0.201630	2919.160156
8291.918818	0.658803	0.219383	307.001984
8291.919902	0.282532	0.219383	613.266357
8291.920803	0.288842	0.219383	873.512573
8291.921671	0.285498	0.219383	1121.324951
8291.922719	0.272373	0.219383	1406.771973
8291.923692	0.253901	0.219383	1653.817993
8291.924566	0.246398	0.219383	1869.169556
8291.925463	0.230922	0.219383	2076.306152
8291.926560	0.090593	0.219383	2175.687012
8291.927442	0.091545	0.219383	2256.430176
8291.928304	0.091586	0.219383	2335.376953
8291.929352	0.091176	0.219383	2430.928955
8291.930310	0.091245	0.219383	2518.341797
8291.931190	0.091355	0.219383	2598.734131
8291.932047	0.090908	0.219383	2676.642578
8291.933138	0.090765	0.219383	2775.667725
8291.934035	0.090721	0.219383	2857.044922
8291.934914	0.090879	0.219383	2936.927490
8292.953099	0.567202	0.187092	283.033875
8292.953982	0.281052	0.187092	531.203003
8292.954860	0.289065	0.187092	785.002014
8292.955987	0.285502	0.187092	1106.762451
8292.956950	0.273501	0.187092	1370.143921
8292.957824	0.257010	0.187092	1594.771118
8292.958855	0.246464	0.187092	1848.875122
8292.959898	0.233137	0.187092	2092.037109
8292.960789	0.090784	0.187092	2172.925293
8292.961740	0.091439	0.187092	2259.884033
8292.962791	0.091399	0.187092	2355.944336
8292.963734	0.091425	0.187092	2442.157715
8292.964600	0.091425	0.187092	2521.331299
8292.965663	0.090927	0.187092	2617.986084
8292.966677	0.091044	0.187092	2710.304443
8292.967565	0.091025	0.187092	2791.135010
8292.968525	0.090776	0.187092	2878.280273
8292.969557	0.090780	0.187092	2971.965332
8293.951412	0.645817	0.226739	270.597168
8293.952522	0.282828	0.226739	584.536621
8293.953494	0.289259	0.226739	865.696411
8293.954365	0.285762	0.226739	1114.594849
8293.955387	0.272670	0.226739	1393.263184
8293.956438	0.252858	0.226739	1659.016602
8293.957330	0.246240	0.226739	1878.662842
8293.958259	0.202939	0.226739	2067.193604
8293.959326	0.090659	0.226739	2163.927002
8293.960267	0.091472	0.226739	2250.002197
8293.961132	0.091644	0.226739	2329.274414
8293.962195	0.091165	0.226739	2426.182373
8293.963207	0.091315	0.226739	2518.592773
8293.964099	0.091318	0.226739	2600.048828
8293.965056	0.090853	0.226739	2686.995361
8293.966099	0.090619	0.226739	2781.510986
8293.967017	0.090985	0.226739	2865.035400
8293.967874	0.090571	0.226739	2942.655029
8294.990788	0.630674	0.181138	271.820404
8294.991793	0.280701	0.181138	553.924561
8294.992859	0.288823	0.181138	861.810181
8294.993756	0.284817	0.181138	1117.290894
8294.994615	0.273270	0.181138	1352.030029
8294.995722	0.253912	0.181138	1633.111084
8294.996698	0.245922	0.181138	1873.130615
8294.997563	0.249946	0.181138	2089.334229
8294.998620	0.090601	0.181138	2185.099121
8294.999663	0.091300	0.181138	2280.325195
8295.000544	0.091798	0.181138	2361.199219
8295.001465	0.091289	0.181138	2445.276367
8295.002528	0.090981	0.181138	2541.989746
8295.003477	0.091128	0.181138	2628.470215
8295.004348	0.090974	0.181138	2707.708740
8295.005395	0.090784	0.181138	2802.759277
8295.006415	0.090615	0.181138	2895.186768
8295.007306	0.090659	0.181138	2975.964111
8295.990710	0.647552	0.222501	271.972046
8295.991725	0.280745	0.222501	556.927856
8295.992773	0.288915	0.222501	859.710571
8295.993680	0.285015	0.222501	1118.218872
8295.994554	0.273274	0.222501	1357.060303
8295.995674	0.253531	0.222501	1641.015625
8295.996626	0.246097	0.222501	1875.300415
8295.997494	0.249324	0.222501	2091.713379
8295.998534	0.090575	0.222501	2185.911377
8295.999557	0.091465	0.222501	2279.479980
8296.000436	0.091886	0.222501	2360.247803
8296.001356	0.091238	0.222501	2444.186523
8296.002439	0.091047	0.222501	2542.790771
8296.003374	0.091230	0.222501	2628.091309
8296.004231	0.091216	0.222501	2706.263184
8296.005264	0.090879	0.222501	2800.141113
8296.006285	0.090645	0.222501	2892.689209
8296.007174	0.090941	0.222501	2973.535889
8297.021874	0.645095	0.180937	269.649811
8297.022941	0.282144	0.180937	570.696960
8297.023837	0.289080	0.180937	829.712280
8297.024713	0.286172	0.180937	1080.398804
8297.025683	0.275229	0.180937	1347.371338
8297.026655	0.257256	0.180937	1597.424072
8297.027583	0.246570	0.180937	1826.240845
8297.028455	0.292723	0.180937	2081.495605
8297.029490	0.090776	0.180937	2175.449219
8297.030375	0.091183	0.180937	2256.145996
8297.031244	0.091260	0.180937	2335.450684
8297.032165	0.091388	0.180937	2419.618896
8297.033151	0.091527	0.180937	2509.864502
8297.034063	0.091293	0.180937	2593.123535
8297.034939	0.091143	0.180937	2672.964355
8297.035977	0.090765	0.180937	2767.178711
8297.036891	0.090743	0.180937	2850.118164
8297.037763	0.090948	0.180937	2929.425293
8298.034111	0.644041	0.211919	273.073181
8298.035103	0.280031	0.211919	550.863464
8298.036127	0.288772	0.211919	846.565918
8298.037010	0.285399	0.211919	1098.573364
8298.037869	0.274933	0.211919	1334.740723
8298.038917	0.255861	0.211919	1602.882568
8298.039862	0.246193	0.211919	1835.534546
8298.040748	0.282129	0.211919	2085.500732
8298.041692	0.090787	0.211919	2171.204102
8298.042737	0.091439	0.211919	2266.758057
8298.043627	0.091879	0.211919	2348.530029
8298.044486	0.091388	0.211919	2427.032227
8298.045532	0.091014	0.211919	2522.233398
8298.046491	0.090908	0.211919	2609.414307
8298.047366	0.091091	0.211919	2689.119141
8298.048290	0.090758	0.211919	2772.979492
8298.049342	0.090685	0.211919	2868.379883
8298.050225	0.090667	0.211919	2948.438477
8299.051574	0.498962	0.180232	268.940735
8299.052614	0.283184	0.180232	563.451660
8299.053503	0.288922	0.180232	820.303406
8299.054443	0.284916	0.180232	1088.124268
8299.055514	0.270850	0.180232	1378.204224
8299.056455	0.252825	0.180232	1616.112305
8299.057325	0.245984	0.180232	1830.118286
8299.058399	0.220836	0.180232	2067.296387
8299.059413	0.091044	0.180232	2159.614746
8299.060303	0.091604	0.180232	2241.142334
8299.061273	0.091359	0.180232	2329.760254
8299.062310	0.091117	0.180232	2424.248535
8299.063223	0.091296	0.180232	2507.602051
8299.064084	0.091161	0.180232	2586.091553
8299.065151	0.090864	0.180232	2683.043701
8299.066152	0.091033	0.180232	2774.167480
8299.067025	0.090582	0.180232	2853.245850
8299.068018	0.090718	0.180232	2943.328613
8300.078613	0.566001	0.201449	286.396515
8300.079566	0.282034	0.201449	555.174622
8300.080434	0.289138	0.201449	806.146545
8300.081458	0.285641	0.201449	1098.642822
8300.082508	0.272600	0.201449	1384.872925
8300.083403	0.254952	0.201449	1613.055298
8300.084354	0.246420	0.201449	1847.400391
8300.085439	0.218057	0.201449	2083.991943
8300.086384	0.090912	0.201449	2169.903564
8300.087249	0.091608	0.201449	2249.144287
8300.088314	0.091421	0.201449	2346.507568
8300.089318	0.091359	0.201449	2438.231689
8300.090210	0.091399	0.201449	2519.759521
8300.091181	0.090934	0.201449	2608.056152
8300.092225	0.090791	0.201449	2702.842041
8300.093136	0.090795	0.201449	2785.555908
8300.093996	0.090927	0.201449	2863.752686
8300.095084	0.090612	0.201449	2962.338135
8301.081132	0.636951	0.191370	342.679474
8301.082187	0.283802	0.191370	642.091064
8301.083101	0.289438	0.191370	906.637817
8301.083966	0.285249	0.191370	1153.378174
8301.085078	0.270872	0.191370	1454.587402
8301.086043	0.252338	0.191370	1698.093262
8301.086924	0.246222	0.191370	1915.014771
8301.087945	0.205964	0.191370	2125.304443
8301.088997	0.090894	0.191370	2220.924561
8301.089891	0.091732	0.191370	2302.933105
8301.090790	0.091582	0.191370	2385.265381
8301.091872	0.091124	0.191370	2483.861816
8301.092814	0.091337	0.191370	2569.900879
8301.093674	0.090923	0.191370	2648.094482
8301.094707	0.090846	0.191370	2741.938232
8301.095743	0.090817	0.191370	2836.024170
8301.096619	0.091014	0.191370	2915.752686
8301.097566	0.090667	0.191370	3001.613770
8302.121500	0.554630	0.203685	282.306732
8302.122524	0.282382	0.203685	571.465454
8302.123400	0.288673	0.203685	824.343079
8302.124384	0.284290	0.203685	1104.083984
8302.125466	0.270502	0.203685	1396.766846
8302.126358	0.252902	0.203685	1622.355103
8302.127224	0.246002	0.203685	1835.392944
8302.128350	0.210480	0.203685	2072.393066
8302.129325	0.090747	0.203685	2160.871338
8302.130190	0.091487	0.203685	2240.007324
8302.131249	0.091304	0.203685	2336.697998
8302.132297	0.091069	0.203685	2432.138672
8302.133186	0.091571	0.203685	2513.545410
8302.134112	0.091055	0.203685	2597.862061
8302.135170	0.090828	0.203685	2693.957764
8302.136110	0.090890	0.203685	2779.394287
8302.136977	0.090754	0.203685	2858.078369
8302.138029	0.090560	0.203685	2953.347900
8303.112648	0.630549	0.206859	274.288940
8303.113515	0.279346	0.206859	516.481689
8303.114559	0.288867	0.206859	818.059082
8303.115591	0.285575	0.206859	1112.772461
8303.116489	0.274281	0.206859	1359.076782
8303.117449	0.256560	0.206859	1605.374390
8303.118502	0.246365	0.206859	1864.796509
8303.119433	0.263632	0.206859	2110.237549
8303.120294	0.090601	0.206859	2188.244629
8303.121368	0.091274	0.206859	2286.273437
8303.122374	0.091560	0.206859	2378.382812
8303.123251	0.091344	0.206859	2458.491455
8303.124227	0.091274	0.206859	2547.575195
8303.125281	0.091073	0.206859	2643.566162
8303.126183	0.091165	0.206859	2725.796631
8303.127039	0.090927	0.206859	2803.629639
8303.128101	0.090652	0.206859	2899.901855
8303.129088	0.090842	0.206859	2989.563232
8304.163792	0.642418	0.194605	287.160950
8304.164888	0.282982	0.194605	597.309448
8304.165853	0.289416	0.194605	876.596375
8304.166721	0.285666	0.194605	1124.554932
8304.167738	0.272505	0.194605	1401.692383
8304.168772	0.253154	0.194605	1663.453857
8304.169669	0.246376	0.194605	1884.452881
8304.170618	0.194736	0.194605	2069.257568
8304.171686	0.090791	0.194605	2166.222412
8304.172619	0.092003	0.194605	2252.061279
8304.173480	0.091633	0.194605	2330.957520
8304.174544	0.091234	0.194605	2428.030518
8304.175545	0.091051	0.194605	2519.172607
8304.176431	0.091161	0.194605	2599.941162
8304.177410	0.090952	0.194605	2688.983398
8304.178455	0.090743	0.194605	2783.810303
8304.179366	0.090817	0.194605	2866.544189
8304.180225	0.090868	0.194605	2944.599609
8305.145342	0.568444	0.223533	279.674255
8305.146215	0.280203	0.223533	524.291138
8305.147144	0.288724	0.223533	792.516113
8305.148216	0.285425	0.223533	1098.491455
8305.149173	0.273333	0.223533	1360.070679
8305.150038	0.256769	0.223533	1582.175659
8305.151102	0.246141	0.223533	1844.070068
8305.152117	0.247745	0.223533	2095.531494
8305.153004	0.090970	0.223533	2176.222168
8305.153978	0.091395	0.223533	2265.241211
8305.155020	0.091403	0.223533	2360.482666
8305.155928	0.091150	0.223533	2443.246826
8305.156785	0.091344	0.223533	2521.528564
8305.157867	0.090886	0.223533	2619.867432
8305.158868	0.091036	0.223533	2710.994873
8305.159741	0.091187	0.223533	2790.600586
8305.160717	0.090652	0.223533	2879.076904
8305.161786	0.090842	0.223533	2976.187256
8306.202560	0.617003	0.194287	265.311340
8306.203431	0.279148	0.194287	508.449219
8306.204298	0.288527	0.194287	758.601807
8306.205374	0.286677	0.194287	1067.066528
8306.206275	0.276537	0.194287	1316.226196
8306.207152	0.260603	0.194287	1544.775024
8306.208149	0.247218	0.194287	1791.251343
8306.209113	0.299993	0.194287	2080.444336
8306.210048	0.090542	0.194287	2165.101074
8306.210913	0.091377	0.194287	2244.142090
8306.211941	0.091696	0.194287	2338.405029
8306.212826	0.091571	0.194287	2419.445312
8306.213688	0.091428	0.194287	2498.256348
8306.214627	0.091165	0.194287	2583.859863
8306.215604	0.091201	0.194287	2672.963379
8306.216480	0.091201	0.194287	2752.855713
8306.217368	0.090652	0.194287	2833.354492
8306.218465	0.090710	0.194287	2932.863770
8307.181608	0.553151	0.226461	287.085144
8307.182503	0.281287	0.226461	538.836670
8307.183373	0.288739	0.226461	790.039612
8307.184396	0.285601	0.226461	1082.208984
8307.185392	0.273153	0.226461	1354.269409
8307.186288	0.255978	0.226461	1583.625488
8307.187150	0.246636	0.226461	1796.225464
8307.188245	0.240187	0.226461	2059.229980
8307.189151	0.090754	0.226461	2141.453369
8307.190029	0.091937	0.226461	2222.174316
8307.191011	0.091432	0.226461	2311.960449
8307.192011	0.091560	0.226461	2403.520508
8307.192897	0.091582	0.226461	2484.662109
8307.193755	0.091212	0.226461	2562.922119
8307.194841	0.090831	0.226461	2661.564941
8307.195757	0.091084	0.226461	2744.997803
8307.196629	0.090864	0.226461	2824.231445
8307.197623	0.090652	0.226461	2914.339355
8308.239799	0.644696	0.197357	271.417053
8308.240857	0.281975	0.197357	569.746704
8308.241866	0.289178	0.197357	861.527771
8308.242762	0.285370	0.197357	1117.219238
8308.243747	0.272450	0.197357	1385.582520
8308.244811	0.252473	0.197357	1654.213989
8308.245726	0.246226	0.197357	1879.510376
8308.246597	0.255886	0.197357	2102.387207
8308.247692	0.090677	0.197357	2201.678955
8308.248653	0.091923	0.197357	2290.016602
8308.249524	0.091798	0.197357	2369.972656
8308.250531	0.091260	0.197357	2461.871338
8308.251581	0.091230	0.197357	2557.663330
8308.252460	0.091274	0.197357	2637.893555
8308.253328	0.091025	0.197357	2716.903564
8308.254430	0.090773	0.197357	2816.935059
8308.255382	0.090996	0.197357	2903.563232
8308.256248	0.090692	0.197357	2982.102539
8309.217814	0.566243	0.228052	289.916229
8309.218745	0.281711	0.228052	552.189575
8309.219614	0.289028	0.228052	803.355164
8309.220656	0.285344	0.228052	1100.683838
8309.221687	0.272289	0.228052	1381.413574
8309.222583	0.255051	0.228052	1609.939453
8309.223558	0.246471	0.228052	1850.248657
8309.224622	0.214746	0.228052	2078.738525
8309.225550	0.090875	0.228052	2163.070801
8309.226412	0.091630	0.228052	2242.055664
8309.227507	0.091340	0.228052	2342.073242
8309.228498	0.091476	0.228052	2432.725830
8309.229387	0.091018	0.228052	2513.640869
8309.230368	0.090927	0.228052	2602.839844
8309.231425	0.090831	0.228052	2698.848633
8309.232320	0.090835	0.228052	2780.145996
8309.233180	0.090516	0.228052	2857.989990
8309.234264	0.090571	0.228052	2956.169189
8310.276597	0.660677	0.195326	322.410614
8310.277675	0.282876	0.195326	627.350952
8310.278619	0.289135	0.195326	900.293945
8310.279491	0.284952	0.195326	1148.772461
8310.280542	0.271285	0.195326	1433.893433
8310.281568	0.251979	0.195326	1692.423706
8310.282463	0.245980	0.195326	1912.576050
8310.283429	0.194429	0.195326	2100.394287
8310.284475	0.090729	0.195326	2195.296631
8310.285404	0.091447	0.195326	2280.250488
8310.286264	0.091534	0.195326	2358.970215
8310.287343	0.091289	0.195326	2457.471191
8310.288345	0.091110	0.195326	2548.762939
8310.289226	0.091161	0.195326	2629.075684
8310.290218	0.090835	0.195326	2719.184082
8310.291274	0.090707	0.195326	2814.970459
8310.292172	0.090787	0.195326	2896.497559
8310.293029	0.090535	0.195326	2974.085693
8311.255488	0.630132	0.221401	269.696442
8311.256361	0.279679	0.221401	513.856140
8311.257489	0.289021	0.221401	839.871826
8311.258447	0.285377	0.221401	1113.263184
8311.259309	0.274486	0.221401	1349.870239
8311.260344	0.255278	0.221401	1614.083252
8311.261386	0.246299	0.221401	1870.726562
8311.262290	0.256249	0.221401	2102.375488
8311.263229	0.090571	0.221401	2187.421875
8311.264297	0.091476	0.221401	2285.118164
8311.265231	0.091534	0.221401	2370.611328
8311.266098	0.091340	0.221401	2449.803467
8311.267144	0.090992	0.221401	2544.981445
8311.268150	0.091355	0.221401	2636.884521
8311.269038	0.091077	0.221401	2717.760498
8311.269999	0.090897	0.221401	2805.112793
8311.271053	0.090747	0.221401	2900.760254
8311.271981	0.090780	0.221401	2985.004150
8312.313269	0.647736	0.190371	272.696686
8312.314266	0.280909	0.190371	552.763367
8312.315219	0.289310	0.190371	828.476074
8312.316106	0.286703	0.190371	1082.781494
8312.317085	0.275328	0.190371	1352.328003
8312.318098	0.256077	0.190371	1611.733643
8312.318991	0.246665	0.190371	1832.005493
8312.319867	0.285114	0.190371	2081.764893
8312.320966	0.090590	0.190371	2181.322754
8312.321872	0.091747	0.190371	2264.445312
8312.322737	0.091813	0.190371	2343.863281
8312.323720	0.091498	0.190371	2433.805664
8312.324742	0.091128	0.190371	2526.938477
8312.325617	0.091373	0.190371	2606.890137
8312.326481	0.090934	0.190371	2685.457031
8312.327539	0.090802	0.190371	2781.525635
8312.328472	0.090652	0.190371	2866.103760
8312.329346	0.090905	0.190371	2945.554443
8313.292229	0.617164	0.228161	267.849304
8313.293090	0.279423	0.228161	508.432190
8313.294172	0.288911	0.228161	821.034058
8313.295086	0.286161	0.228161	1082.585083
8313.295966	0.275925	0.228161	1325.399292
8313.296942	0.258127	0.228161	1577.331665
8313.297960	0.246577	0.228161	1828.347168
8313.298855	0.281111	0.228161	2079.941406
8313.299717	0.090527	0.228161	2157.976074
8313.300789	0.091472	0.228161	2256.034180
8313.301727	0.091428	0.228161	2341.793945
8313.302606	0.091674	0.228161	2422.375000
8313.303567	0.091150	0.228161	2509.969971
8313.304580	0.091241	0.228161	2602.397461
8313.305463	0.091047	0.228161	2682.792236
8313.306326	0.091055	0.228161	2761.372559
8313.307398	0.090615	0.228161	2858.512207
8313.308331	0.090721	0.228161	2943.155273
8314.350110	0.552418	0.193606	282.285706
8314.351129	0.282821	0.193606	570.480347
8314.352023	0.289003	0.193606	828.848755
8314.352985	0.285022	0.193606	1103.039917
8314.354046	0.271201	0.193606	1390.784424
8314.354987	0.253235	0.193606	1629.078369
8314.355864	0.246423	0.193606	1845.191650
8314.356934	0.215973	0.193606	2076.282715
8314.357926	0.090795	0.193606	2166.351074
8314.358819	0.091447	0.193606	2248.012939
8314.359788	0.091238	0.193606	2336.422363
8314.360836	0.091000	0.193606	2431.790039
8314.361750	0.091417	0.193606	2515.345459
8314.362612	0.090912	0.193606	2593.711426
8314.363711	0.090861	0.193606	2693.567139
8314.364700	0.090831	0.193606	2783.399414
8314.365576	0.091000	0.193606	2863.115234
8314.366597	0.090612	0.193606	2955.629639
8315.327960	0.562903	0.228149	250.491776
8315.328836	0.279891	0.228149	495.676575
8315.329866	0.289003	0.228149	793.349365
8315.330912	0.285626	0.228149	1092.114380
8315.331797	0.274468	0.228149	1335.018311
8315.332694	0.257043	0.228149	1565.586304
8315.333790	0.246390	0.228149	1835.630127
8315.334746	0.222195	0.228149	2048.048340
8315.335617	0.090674	0.228149	2127.025146
8315.336639	0.091278	0.228149	2220.311279
8315.337668	0.091278	0.228149	2314.236328
8315.338558	0.091696	0.228149	2395.845459
8315.339503	0.091150	0.228149	2481.982178
8315.340562	0.090952	0.228149	2578.300537
8315.341498	0.091183	0.228149	2663.647705
8315.342365	0.090970	0.228149	2742.519043
8315.343437	0.090659	0.228149	2839.705566
8315.344442	0.090754	0.228149	2930.913818
8316.386360	0.527120	0.190939	290.443329
8316.387427	0.283942	0.190939	593.409058
8316.388326	0.289200	0.190939	853.400269
8316.389192	0.284678	0.190939	1099.931152
8316.390300	0.270095	0.190939	1399.196655
8316.391256	0.252122	0.190939	1640.224854
8316.392121	0.246343	0.190939	1853.311401
8316.393161	0.224084	0.190939	2086.359375
8316.394187	0.090967	0.190939	2179.691406
8316.395068	0.091630	0.190939	2260.417236
8316.395987	0.091414	0.190939	2344.426270
8316.397063	0.091073	0.190939	2442.420898
8316.397997	0.091370	0.190939	2527.760254
8316.398856	0.091274	0.190939	2606.165039
8316.399889	0.090784	0.190939	2699.944580
8316.400919	0.090784	0.190939	2793.451660
8316.401808	0.090776	0.190939	2874.151855
8316.402752	0.090685	0.190939	2959.758301
8317.368254	0.630348	0.214996	267.267517
8317.369159	0.279785	0.214996	520.473083
8317.370275	0.289189	0.214996	843.208496
8317.371232	0.285304	0.214996	1116.244385
8317.372101	0.274080	0.214996	1354.419556
8317.373130	0.254865	0.214996	1616.675171
8317.374165	0.246346	0.214996	1871.643677
8317.375071	0.256447	0.214996	2103.984131
8317.376012	0.090604	0.214996	2189.242676
8317.377077	0.091384	0.214996	2286.566895
8317.378011	0.091384	0.214996	2371.919922
8317.378872	0.091644	0.214996	2450.825684
8317.379946	0.091099	0.214996	2548.665527
8317.380935	0.091014	0.214996	2638.678711
8317.381821	0.091190	0.214996	2719.473145
8317.382795	0.090795	0.214996	2807.907227
8317.383842	0.090743	0.214996	2902.915527
8317.384749	0.091084	0.214996	2985.528809
8318.419514	0.514197	0.195693	284.350800
8318.420595	0.283901	0.195693	591.248169
8318.421471	0.289160	0.195693	844.552490
8318.422354	0.284773	0.195693	1096.007080
8318.423463	0.270264	0.195693	1395.729492
8318.424426	0.252048	0.195693	1638.452026
8318.425301	0.246167	0.195693	1853.848145
8318.426325	0.222821	0.195693	2082.016846
8318.427359	0.091066	0.195693	2176.178711
8318.428250	0.092010	0.195693	2258.160156
8318.429189	0.091589	0.195693	2344.162598
8318.430248	0.091322	0.195693	2440.872559
8318.431191	0.091073	0.195693	2526.754395
8318.432053	0.091304	0.195693	2605.458252
8318.433113	0.090806	0.195693	2701.712158
8318.434117	0.090758	0.195693	2792.833252
8318.435016	0.091091	0.195693	2874.724365
8318.435975	0.090531	0.195693	2961.543701
8319.409191	0.661633	0.211097	353.312195
8319.410242	0.283645	0.211097	651.423096
8319.411151	0.289336	0.211097	914.429443
8319.412029	0.285344	0.211097	1164.961670
8319.413096	0.271520	0.211097	1454.673340
8319.414105	0.252272	0.211097	1709.215576
8319.415002	0.246273	0.211097	1930.122681
8319.415978	0.211564	0.211097	2136.608887
8319.417027	0.090912	0.211097	2231.975342
8319.417934	0.091571	0.211097	2315.030273
8319.418797	0.091699	0.211097	2394.166748
8319.419894	0.091216	0.211097	2494.230469
8319.420870	0.091146	0.211097	2583.189209
8319.421751	0.091106	0.211097	2663.453613
8319.422778	0.090905	0.211097	2756.812500
8319.423840	0.090842	0.211097	2853.287109
8319.424737	0.091135	0.211097	2935.035400
8319.425637	0.090681	0.211097	3016.648437
8320.450551	0.551246	0.200982	263.495758
8320.451432	0.280569	0.200982	510.676910
8320.452413	0.289219	0.200982	794.400513
8320.453471	0.285601	0.200982	1096.565918
8320.454388	0.273926	0.200982	1347.755859
8320.455251	0.256831	0.200982	1569.401123
8320.456345	0.246643	0.200982	1839.228638
8320.457352	0.239916	0.200982	2080.823730
8320.458227	0.090850	0.200982	2160.317139
8320.459203	0.091414	0.200982	2249.536865
8320.460266	0.091432	0.200982	2346.729004
8320.461151	0.091707	0.200982	2427.889404
8320.462018	0.091355	0.200982	2507.094238
8320.463112	0.091117	0.200982	2606.776123
8320.464105	0.091201	0.200982	2697.338867
8320.465003	0.090923	0.200982	2778.987549
8320.465988	0.090630	0.200982	2868.258057
8320.467045	0.090637	0.200982	2964.061523
8321.452596	0.498728	0.196768	269.313141
8321.453650	0.283466	0.196768	568.085815
8321.454550	0.289248	0.196768	828.409058
8321.455479	0.284890	0.196768	1093.072021
8321.456553	0.270612	0.196768	1383.708862
8321.457505	0.252327	0.196768	1623.923828
8321.458374	0.246064	0.196768	1837.753784
8321.459449	0.210062	0.196768	2063.570801
8321.460467	0.090952	0.196768	2156.160156
8321.461361	0.091882	0.196768	2238.302979
8321.462323	0.091450	0.196768	2326.278076
8321.463362	0.091322	0.196768	2421.161621
8321.464273	0.091381	0.196768	2504.409424
8321.465138	0.091077	0.196768	2583.190674
8321.466207	0.090835	0.196768	2680.293213
8321.467207	0.090868	0.196768	2771.161133
8321.468083	0.090791	0.196768	2850.694092
8321.469073	0.090776	0.196768	2940.562744
8322.480580	0.603043	0.206835	259.911621
8322.481472	0.279122	0.206835	508.888733
8322.482336	0.288032	0.206835	757.748535
8322.483439	0.285568	0.206835	1072.729614
8322.484358	0.274742	0.206835	1325.217896
8322.485241	0.258267	0.206835	1553.267334
8322.486110	0.246654	0.206835	1767.609741
8322.487166	0.258274	0.206835	2040.347046
8322.488049	0.090699	0.206835	2120.434570
8322.488920	0.091501	0.206835	2200.132324
8322.489930	0.091534	0.206835	2292.582031
8322.490837	0.091626	0.206835	2375.686768
8322.491744	0.091487	0.206835	2458.665283
8322.492621	0.091271	0.206835	2538.709717
8322.493651	0.091018	0.206835	2632.458252
8322.494547	0.091047	0.206835	2714.036621
8322.495424	0.091154	0.206835	2793.978271
8322.496377	0.090828	0.206835	2880.537109
8323.495968	0.553176	0.196478	284.332581
8323.496989	0.283239	0.196478	573.519165
8323.497875	0.289325	0.196478	829.861084
8323.498879	0.285073	0.196478	1116.074585
8323.499939	0.270743	0.196478	1403.062622
8323.500847	0.253052	0.196478	1632.833618
8323.501708	0.246339	0.196478	1844.931641
8323.502805	0.230515	0.196478	2097.806641
8323.503791	0.090765	0.196478	2187.301270
8323.504666	0.091849	0.196478	2267.669434
8323.505654	0.091421	0.196478	2357.993164
8323.506734	0.091205	0.196478	2456.494385
8323.507599	0.091381	0.196478	2535.538574
8323.508473	0.091022	0.196478	2615.091553
8323.509587	0.090905	0.196478	2716.359131
8323.510547	0.090967	0.196478	2803.687256
8323.511411	0.091091	0.196478	2882.390137
8323.512424	0.090645	0.196478	2974.213135
8324.510197	0.551071	0.218239	260.656372
8324.511082	0.280353	0.218239	508.768555
8324.512047	0.288860	0.218239	787.518311
8324.513107	0.285487	0.218239	1090.134521
8324.514036	0.273754	0.218239	1344.451660
8324.514903	0.256791	0.218239	1567.089233
8324.516013	0.246368	0.218239	1840.558105
8324.517005	0.241904	0.218239	2080.527100
8324.517904	0.090776	0.218239	2162.135010
8324.518905	0.091340	0.218239	2253.566650
8324.519958	0.091494	0.218239	2349.909912
8324.520845	0.091663	0.218239	2431.214600
8324.521727	0.091194	0.218239	2511.647461
8324.522831	0.091014	0.218239	2612.127441
8324.523773	0.091392	0.218239	2698.218262
8324.524633	0.090864	0.218239	2776.361572
8324.525669	0.090710	0.218239	2870.337646
8324.526704	0.090608	0.218239	2964.116943
8325.539358	0.566038	0.190400	287.547089
8325.540331	0.281755	0.190400	561.695068
8325.541200	0.288662	0.190400	812.542419
8325.542254	0.284681	0.190400	1112.596680
8325.543286	0.271161	0.190400	1392.434692
8325.544161	0.253766	0.190400	1614.479858
8325.545075	0.246152	0.190400	1839.463135
8325.546177	0.231445	0.190400	2094.515869
8325.547115	0.090718	0.190400	2179.609131
8325.547981	0.091849	0.190400	2259.150635
8325.549023	0.091370	0.190400	2354.357910
8325.550049	0.091282	0.190400	2448.012939
8325.550937	0.091117	0.190400	2528.924805
8325.551893	0.090992	0.190400	2615.913574
8325.552947	0.090996	0.190400	2711.823486
8325.553879	0.091022	0.190400	2796.655762
8325.554740	0.090828	0.190400	2874.858398
8325.555818	0.090670	0.190400	2972.600830
8326.541874	0.664127	0.228346	362.613434
8326.542948	0.284143	0.228346	667.783081
8326.543852	0.289541	0.228346	929.528198
8326.544714	0.285000	0.228346	1175.198242
8326.545791	0.270381	0.228346	1466.398437
8326.546781	0.251532	0.228346	1715.415039
8326.547680	0.246302	0.228346	1936.840942
8326.548667	0.206466	0.228346	2140.623047
8326.549720	0.090923	0.228346	2236.364746
8326.550614	0.091981	0.228346	2318.595947
8326.551480	0.091498	0.228346	2397.833008
8326.552592	0.091267	0.228346	2499.322021
8326.553559	0.091322	0.228346	2587.630371
8326.554426	0.091176	0.228346	2666.679687
8326.555469	0.090883	0.228346	2761.470215
8326.556506	0.090685	0.228346	2855.510254
8326.557395	0.091051	0.228346	2936.454590
8326.558321	0.090626	0.228346	3020.374512
8327.580613	0.644670	0.185646	278.497620
8327.581483	0.279016	0.185646	521.241638
8327.582416	0.288439	0.185646	790.354980
8327.583416	0.286249	0.185646	1076.603760
8327.584340	0.275863	0.185646	1331.501221
8327.585230	0.260039	0.185646	1562.936035
8327.586242	0.246885	0.185646	1812.783447
8327.587143	0.302560	0.185646	2085.389893
8327.588060	0.090681	0.185646	2168.544434
8327.588918	0.091318	0.185646	2246.895508
8327.589961	0.091761	0.185646	2342.602783
8327.590836	0.091465	0.185646	2422.634521
8327.591712	0.091663	0.185646	2502.930908
8327.592687	0.091157	0.185646	2591.809082
8327.593631	0.090897	0.185646	2677.615967
8327.594547	0.091318	0.185646	2761.263672
8327.595411	0.091088	0.185646	2839.963379
8327.596436	0.090773	0.185646	2933.005371
8328.577477	0.616644	0.235964	265.157074
8328.578340	0.279199	0.235964	506.105988
8328.579432	0.288691	0.235964	821.356995
8328.580344	0.285663	0.235964	1081.881592
8328.581232	0.275585	0.235964	1326.600830
8328.582222	0.257527	0.235964	1581.552368
8328.583227	0.246284	0.235964	1829.067993
8328.584129	0.282316	0.235964	2083.716797
8328.584994	0.090842	0.235964	2162.295410
8328.586104	0.091370	0.235964	2263.715820
8328.587017	0.091710	0.235964	2347.447266
8328.587895	0.091758	0.235964	2428.010742
8328.588918	0.091179	0.235964	2521.287109
8328.589897	0.091040	0.235964	2610.415283
8328.590774	0.091318	0.235964	2690.501465
8328.591631	0.091223	0.235964	2768.679687
8328.592739	0.090831	0.235964	2869.320801
8328.593647	0.090952	0.235964	2951.905273
8329.616353	0.591658	0.195032	272.162537
8329.617231	0.279829	0.195032	517.852478
8329.618210	0.288717	0.195032	800.506470
8329.619277	0.285103	0.195032	1104.710937
8329.620203	0.273340	0.195032	1357.823608
8329.621071	0.256340	0.195032	1580.327026
8329.622181	0.246405	0.195032	1853.836670
8329.623185	0.231932	0.195032	2086.696777
8329.624078	0.091003	0.195032	2167.962891
8329.625066	0.091395	0.195032	2258.261475
8329.626125	0.091498	0.195032	2355.157715
8329.627015	0.091652	0.195032	2436.727539
8329.627876	0.091366	0.195032	2515.393555
8329.628977	0.091000	0.195032	2615.584229
8329.629934	0.090959	0.195032	2702.632324
8329.630792	0.090729	0.195032	2780.477539
8329.631847	0.090769	0.195032	2876.238770
8329.632887	0.090582	0.195032	2970.444336
8330.617810	0.646501	0.230123	291.572174
8330.618901	0.282700	0.230123	599.998108
8330.619864	0.289135	0.230123	878.434692
8330.620741	0.285051	0.230123	1128.424683
8330.621787	0.271157	0.230123	1412.055176
8330.622812	0.252045	0.230123	1670.401001
8330.623709	0.246189	0.230123	1891.232544
8330.624667	0.216771	0.230123	2098.899414
8330.625727	0.091022	0.230123	2195.382324
8330.626656	0.091963	0.230123	2280.815918
8330.627523	0.091831	0.230123	2360.433350
8330.628588	0.091157	0.230123	2457.515869
8330.629588	0.091143	0.230123	2548.658447
8330.630468	0.091267	0.230123	2628.973389
8330.631447	0.090842	0.230123	2717.907959
8330.632494	0.090707	0.230123	2812.877930
8330.633402	0.091040	0.230123	2895.542236
8330.634260	0.090619	0.230123	2973.293213
8331.648060	0.657371	0.194678	364.183289
8331.649115	0.283568	0.194678	663.347656
8331.650017	0.289164	0.194678	924.173401
8331.650878	0.284967	0.194678	1169.530029
8331.651944	0.271102	0.194678	1458.525146
8331.652943	0.251990	0.194678	1710.262939
8331.653841	0.246028	0.194678	1931.195923
8331.654840	0.208564	0.194678	2139.551758
8331.655904	0.090634	0.194678	2235.985840
8331.656793	0.091820	0.194678	2317.613770
8331.657676	0.091447	0.194678	2398.361084
8331.658772	0.091168	0.194678	2498.281494
8331.659735	0.091113	0.194678	2586.023682
8331.660606	0.091296	0.194678	2665.542725
8331.661651	0.090857	0.194678	2760.488281
8331.662696	0.090670	0.194678	2855.238525
8331.663583	0.090945	0.194678	2935.906494
8331.664525	0.090663	0.194678	3021.310791
8332.662756	0.577156	0.225813	267.223114
8332.663627	0.279587	0.225813	510.743713
8332.664618	0.288695	0.225813	796.840515
8332.665668	0.285322	0.225813	1096.428833
8332.666580	0.273772	0.225813	1346.108887
8332.667448	0.256743	0.225813	1568.961914
8332.668551	0.246097	0.225813	1840.407349
8332.669542	0.241014	0.225813	2079.252686
8332.670421	0.090667	0.225813	2158.948486
8332.671429	0.091315	0.225813	2250.993652
8332.672474	0.091351	0.225813	2346.455811
8332.673361	0.091512	0.225813	2427.627441
8332.674226	0.091249	0.225813	2506.557617
8332.675333	0.090996	0.225813	2607.290283
8332.676304	0.091066	0.225813	2695.715088
8332.677171	0.090820	0.225813	2774.456299
8332.678215	0.090648	0.225813	2869.093018
8332.679241	0.090773	0.225813	2962.225830
8333.674563	0.610338	0.222014	343.010040
8333.675635	0.284088	0.222014	647.552490
8333.676523	0.289307	0.222014	904.456787
8333.677391	0.284795	0.222014	1151.658813
8333.678494	0.270315	0.222014	1449.816162
8333.679478	0.251825	0.222014	1697.611938
8333.680348	0.246302	0.222014	1911.895142
8333.681408	0.207579	0.222014	2131.929199
8333.682448	0.090908	0.222014	2226.473633
8333.683340	0.091710	0.222014	2308.279053
8333.684252	0.091428	0.222014	2391.661621
8333.685316	0.091143	0.222014	2488.637207
8333.686258	0.091293	0.222014	2574.635010
8333.687126	0.091044	0.222014	2653.660889
8333.688187	0.090798	0.222014	2749.997803
8333.689205	0.090776	0.222014	2842.408203
8333.690096	0.090773	0.222014	2923.286621
8333.691043	0.090721	0.222014	3009.199707
8334.708240	0.565375	0.223492	283.252777
8334.709238	0.282466	0.223492	565.153687
8334.710126	0.288970	0.223492	821.758789
8334.711106	0.285245	0.223492	1101.299316
8334.712158	0.271567	0.223492	1386.988159
8334.713071	0.253605	0.223492	1618.529297
8334.713943	0.246112	0.223492	1833.139038
8334.715049	0.218291	0.223492	2074.568848
8334.716019	0.090703	0.223492	2162.550781
8334.716884	0.092003	0.223492	2242.133545
8334.717982	0.091381	0.223492	2342.469482
8334.719015	0.091351	0.223492	2436.835449
8334.719906	0.091523	0.223492	2518.382812
8334.720833	0.090996	0.223492	2602.736084
8334.721883	0.091025	0.223492	2698.312744
8334.722827	0.090908	0.223492	2784.130127
8334.723692	0.090864	0.223492	2862.727783
8334.724742	0.090608	0.223492	2957.866211
8335.702983	0.603318	0.229752	261.839966
8335.703853	0.279708	0.229752	505.186157
8335.704962	0.288907	0.229752	825.584534
8335.705947	0.285048	0.229752	1106.356445
8335.706822	0.273911	0.229752	1346.028687
8335.707863	0.254487	0.229752	1610.949951
8335.708908	0.246160	0.229752	1868.186768
8335.709808	0.242366	0.229752	2086.315918
8335.710737	0.090641	0.229752	2170.521240
8335.711802	0.091483	0.229752	2267.950684
8335.712757	0.091875	0.229752	2355.691406
8335.713620	0.091304	0.229752	2434.486572
8335.714676	0.091084	0.229752	2530.671143
8335.715691	0.090934	0.229752	2622.968994
8335.716580	0.090864	0.229752	2703.747314
8335.717544	0.090754	0.229752	2791.234619
8335.718582	0.090571	0.229752	2885.247559
8335.719508	0.090564	0.229752	2969.109863
8336.752123	0.591914	0.212201	287.670227
8336.753003	0.280338	0.212201	534.367798
8336.753868	0.288746	0.212201	784.133362
8336.754879	0.286373	0.212201	1073.656738
8336.755855	0.275211	0.212201	1342.262817
8336.756731	0.259069	0.212201	1569.206909
8336.757613	0.247123	0.212201	1787.169189
8336.758703	0.282572	0.212201	2095.172607
8336.759613	0.090758	0.212201	2177.762451
8336.760482	0.091593	0.212201	2257.356689
8336.761548	0.091414	0.212201	2354.803467
8336.762512	0.091329	0.212201	2442.844971
8336.763382	0.091659	0.212201	2522.588135
8336.764238	0.091135	0.212201	2600.599854
8336.765351	0.090853	0.212201	2701.719482
8336.766225	0.091168	0.212201	2781.400391
8336.767098	0.090970	0.212201	2860.817627
8336.768080	0.090692	0.212201	2949.877197
8337.733557	0.645059	0.239932	272.214722
8337.734618	0.282415	0.239932	571.856567
8337.735625	0.289351	0.239932	863.232666
8337.736517	0.285579	0.239932	1117.968750
8337.737508	0.272578	0.239932	1388.093750
8337.738573	0.252744	0.239932	1657.266235
8337.739480	0.246259	0.239932	1880.622681
8337.740355	0.256044	0.239932	2104.660889
8337.741477	0.090681	0.239932	2206.405029
8337.742437	0.091864	0.239932	2294.594482
8337.743308	0.091761	0.239932	2374.518799
8337.744333	0.091285	0.239932	2468.086426
8337.745376	0.091117	0.239932	2563.121338
8337.746262	0.091340	0.239932	2644.048828
8337.747150	0.090930	0.239932	2724.794922
8337.748237	0.090736	0.239932	2823.425049
8337.749191	0.090765	0.239932	2910.015137
8337.750055	0.091080	0.239932	2988.708496
8338.791430	0.593529	0.204229	295.577454
8338.792376	0.281741	0.204229	562.104187
8338.793241	0.289124	0.204229	812.196045
8338.794304	0.285597	0.204229	1115.785645
8338.795332	0.272549	0.204229	1395.965820
8338.796229	0.255037	0.204229	1624.733643
8338.797184	0.246449	0.204229	1860.092407
8338.798234	0.223777	0.204229	2095.058105
8338.799154	0.091062	0.204229	2178.835205
8338.800017	0.091428	0.204229	2257.737793
8338.801080	0.091388	0.204229	2354.883301
8338.802090	0.091289	0.204229	2447.085205
8338.802964	0.091359	0.204229	2526.932617
8338.803948	0.090985	0.204229	2616.461914
8338.805003	0.091025	0.204229	2712.493652
8338.805914	0.090857	0.204229	2795.264404
8338.806770	0.090571	0.204229	2872.793457
8338.807827	0.090634	0.204229	2968.593018
8339.771891	0.578188	0.233728	276.952271
8339.772773	0.280422	0.233728	524.284790
8339.773718	0.288977	0.233728	797.368103
8339.774785	0.285439	0.233728	1101.932007
8339.775725	0.273563	0.233728	1359.081421
8339.776593	0.256802	0.233728	1581.985352
8339.777657	0.246511	0.233728	1844.273315
8339.778672	0.240242	0.233728	2088.118652
8339.779550	0.090692	0.233728	2167.746338
8339.780521	0.091447	0.233728	2256.541016
8339.781575	0.091703	0.233728	2353.195801
8339.782485	0.091743	0.233728	2436.682129
8339.783342	0.091304	0.233728	2514.929443
8339.784426	0.090974	0.233728	2613.545410
8339.785429	0.090850	0.233728	2704.667480
8339.786301	0.090842	0.233728	2783.881836
8339.787281	0.090765	0.233728	2872.832031
8339.788337	0.090549	0.233728	2968.452148
8340.825078	0.578181	0.200966	279.839661
8340.825960	0.279939	0.200966	526.745850
8340.826898	0.288424	0.200966	797.287598
8340.827972	0.284773	0.200966	1103.133789
8340.828918	0.272838	0.200966	1361.238647
8340.829788	0.256274	0.200966	1584.197388
8340.830857	0.246032	0.200966	1847.205078
8340.831870	0.242611	0.200966	2092.970215
8340.832760	0.090985	0.200966	2173.947021
8340.833728	0.091461	0.200966	2262.481445
8340.834779	0.091469	0.200966	2358.614746
8340.835695	0.091626	0.200966	2442.544189
8340.836551	0.091234	0.200966	2520.640625
8340.837630	0.090930	0.200966	2618.754395
8340.838631	0.090824	0.200966	2709.669189
8340.839502	0.090769	0.200966	2788.729004
8340.840483	0.090758	0.200966	2877.762695
8340.841538	0.090597	0.200966	2973.342529
8341.813815	0.527443	0.218348	290.093445
8341.814888	0.284125	0.218348	594.959351
8341.815784	0.289596	0.218348	854.437317
8341.816671	0.284846	0.218348	1107.095947
8341.817771	0.270022	0.218348	1404.120117
8341.818739	0.251722	0.218348	1647.787476
8341.819611	0.246365	0.218348	1862.617554
8341.820648	0.211714	0.218348	2082.164795
8341.821688	0.090773	0.218348	2176.568359
8341.822582	0.091769	0.218348	2258.609619
8341.823534	0.091556	0.218348	2345.771240
8341.824594	0.091260	0.218348	2442.506592
8341.825526	0.090952	0.218348	2527.273926
8341.826387	0.090908	0.218348	2605.545898
8341.827449	0.090897	0.218348	2702.078857
8341.828453	0.090491	0.218348	2792.931641
8341.829337	0.090989	0.218348	2873.365723
8341.830311	0.090758	0.218348	2961.764160
8342.857250	0.555941	0.203657	283.529999
8342.858290	0.282708	0.203657	577.545776
8342.859177	0.288735	0.203657	833.654053
8342.860146	0.284751	0.203657	1109.577759
8342.861206	0.270509	0.203657	1396.317383
8342.862130	0.252689	0.203657	1629.802246
8342.862994	0.246032	0.203657	1842.373535
8342.864096	0.219617	0.203657	2084.391113
8342.865103	0.091036	0.203657	2176.064697
8342.865980	0.091783	0.203657	2256.558838
8342.866946	0.091476	0.203657	2344.924561
8342.868022	0.091362	0.203657	2443.230469
8342.868903	0.091252	0.203657	2523.623779
8342.869770	0.090787	0.203657	2602.336426
8342.870853	0.090828	0.203657	2700.702637
8342.871841	0.090963	0.203657	2790.574219
8342.872736	0.090963	0.203657	2871.986328
8342.873727	0.090604	0.203657	2961.775146
8343.856058	0.644037	0.204531	270.495483
8343.857106	0.282067	0.204531	566.101318
8343.858150	0.289420	0.204531	868.255981
8343.859046	0.285374	0.204531	1123.950684
8343.859977	0.273428	0.204531	1378.511963
8343.861043	0.253250	0.204531	1648.475952
8343.861985	0.246273	0.204531	1880.465332
8343.862855	0.255260	0.204531	2102.541504
8343.863916	0.090641	0.204531	2198.711426
8343.864923	0.091355	0.204531	2290.705811
8343.865796	0.091761	0.204531	2370.813477
8343.866772	0.091348	0.204531	2459.968750
8343.867820	0.091062	0.204531	2555.401855
8343.868733	0.091410	0.204531	2638.859131
8343.869590	0.090970	0.204531	2716.820801
8343.870637	0.090721	0.204531	2811.806152
8343.871633	0.090641	0.204531	2902.084473
8343.872520	0.091172	0.204531	2982.953857
8344.888271	0.576669	0.217683	253.157547
8344.889154	0.279745	0.217683	500.172241
8344.890026	0.288834	0.217683	752.035645
8344.891028	0.286985	0.217683	1039.594482
8344.891971	0.276270	0.217683	1300.116699
8344.892897	0.259438	0.217683	1540.356689
8344.893765	0.247306	0.217683	1755.018188
8344.894806	0.290508	0.217683	2057.436768
8344.895697	0.090513	0.217683	2138.083496
8344.896563	0.091560	0.217683	2217.374512
8344.897540	0.091589	0.217683	2306.857422
8344.898481	0.091458	0.217683	2392.918945
8344.899392	0.091531	0.217683	2476.303467
8344.900269	0.091201	0.217683	2556.286865
8344.901300	0.091069	0.217683	2650.179443
8344.902197	0.090927	0.217683	2731.740479
8344.903072	0.091311	0.217683	2811.637695
8344.903955	0.090842	0.217683	2891.851318
8345.896378	0.634351	0.204680	268.330292
8345.897449	0.282085	0.204680	570.443298
8345.898390	0.289255	0.204680	842.632568
8345.899266	0.285970	0.204680	1093.142700
8345.900204	0.274050	0.204680	1350.201904
8345.901270	0.254539	0.204680	1621.540039
8345.902153	0.246471	0.204680	1839.173828
8345.903026	0.285059	0.204680	2088.030029
8345.904062	0.090582	0.204680	2181.873291
8345.905021	0.091600	0.204680	2269.718018
8345.905901	0.091780	0.204680	2350.484131
8345.906827	0.091520	0.204680	2435.231445
8345.907879	0.091179	0.204680	2531.151855
8345.908766	0.091267	0.204680	2612.105713
8345.909625	0.091000	0.204680	2690.274414
8345.910661	0.090938	0.204680	2784.485596
8345.911619	0.090879	0.204680	2871.547607
8345.912489	0.090795	0.204680	2950.539062
8346.921927	0.603303	0.219855	262.436890
8346.922793	0.279877	0.219855	504.810120
8346.923897	0.289171	0.219855	824.055054
8346.924860	0.285476	0.219855	1098.968506
8346.925736	0.274307	0.219855	1339.261108
8346.926761	0.254934	0.219855	1600.568604
8346.927811	0.246284	0.219855	1859.166992
8346.928710	0.245310	0.219855	2079.700684
8346.929649	0.090443	0.219855	2164.626709
8346.930709	0.091399	0.219855	2261.509521
8346.931653	0.091450	0.219855	2347.838379
8346.932516	0.091234	0.219855	2426.573486
8346.933573	0.091047	0.219855	2522.810547
8346.934573	0.091011	0.219855	2613.821289
8346.935462	0.090992	0.219855	2694.713623
8346.936416	0.090736	0.219855	2781.275879
8346.937470	0.090593	0.219855	2876.761230
8346.938389	0.090828	0.219855	2960.231934
8347.935173	0.602889	0.202630	256.830872
8347.936054	0.279924	0.202630	503.444214
8347.937152	0.289127	0.202630	820.905884
8347.938108	0.285461	0.202630	1093.807007
8347.938971	0.274523	0.202630	1330.720093
8347.940013	0.255256	0.202630	1596.697266
8347.941042	0.246229	0.202630	1850.067139
8347.941933	0.234529	0.202630	2059.032227
8347.942864	0.090718	0.202630	2143.490479
8347.943941	0.091421	0.202630	2241.950684
8347.944870	0.092025	0.202630	2327.442139
8347.945733	0.091439	0.202630	2406.354248
8347.946769	0.091132	0.202630	2500.766602
8347.947781	0.091088	0.202630	2592.947266
8347.948668	0.091187	0.202630	2673.829590
8347.949636	0.090930	0.202630	2761.850098
8347.950683	0.090612	0.202630	2856.720459
8347.951613	0.090586	0.202630	2940.965332
8348.958143	0.644238	0.218139	276.378235
8348.959010	0.279174	0.218139	518.421753
8348.960066	0.289017	0.218139	823.624084
8348.961074	0.285538	0.218139	1111.446777
8348.961971	0.274618	0.218139	1357.779053
8348.962951	0.256359	0.218139	1609.010498
8348.964014	0.246156	0.218139	1870.674316
8348.964926	0.257139	0.218139	2105.184814
8348.965782	0.090388	0.218139	2182.557129
8348.966875	0.091490	0.218139	2282.556152
8348.967869	0.091560	0.218139	2373.566895
8348.968747	0.091765	0.218139	2454.136719
8348.969750	0.090996	0.218139	2545.405762
8348.970803	0.090916	0.218139	2641.139893
8348.971687	0.090897	0.218139	2721.492920
8348.972554	0.090721	0.218139	2800.148437
8348.973658	0.090710	0.218139	2900.292725
8348.974625	0.090945	0.218139	2988.236328
8349.972409	0.631399	0.198484	268.344543
8349.973520	0.282382	0.198484	582.070496
8349.974504	0.289047	0.198484	866.492371
8349.975377	0.285161	0.198484	1115.437988
8349.976404	0.272175	0.198484	1394.962036
8349.977460	0.252385	0.198484	1661.480835
8349.978334	0.246123	0.198484	1876.592407
8349.979257	0.244292	0.198484	2102.073975
8349.980331	0.090923	0.198484	2199.725098
8349.981282	0.091871	0.198484	2287.094727
8349.982152	0.091447	0.198484	2366.653320
8349.983170	0.091340	0.198484	2459.637695
8349.984198	0.091124	0.198484	2553.313477
8349.985088	0.091187	0.198484	2634.469482
8349.986040	0.091025	0.198484	2721.125732
8349.987108	0.090798	0.198484	2818.098389
8349.988049	0.090762	0.198484	2903.505127
8349.988971	0.090681	0.198484	2987.113037
8350.995397	0.644711	0.217784	279.159729
8350.996258	0.278910	0.217784	519.301147
8350.997304	0.288728	0.217784	821.310669
8350.998192	0.286285	0.217784	1075.532104
8350.999058	0.276182	0.217784	1314.705444
8350.999929	0.259823	0.217784	1541.011230
8351.000983	0.246760	0.217784	1801.096558
8351.001884	0.311594	0.217784	2081.843018
8351.002763	0.090476	0.217784	2161.371582
8351.003750	0.091256	0.217784	2251.441406
8351.004683	0.091556	0.217784	2336.863525
8351.005602	0.091498	0.217784	2420.949951
8351.006462	0.091362	0.217784	2499.521484
8351.007503	0.091058	0.217784	2594.313232
8351.008377	0.091373	0.217784	2674.173584
8351.009246	0.091040	0.217784	2753.287354
8351.010206	0.090989	0.217784	2840.636475
8351.011163	0.090948	0.217784	2927.674072
8352.007623	0.603534	0.198025	258.312531
8352.008508	0.279749	0.198025	505.889984
8352.009370	0.288688	0.198025	754.738831
8352.010508	0.285791	0.198025	1079.968994
8352.011413	0.274775	0.198025	1328.640747
8352.012280	0.258431	0.198025	1552.700806
8352.013357	0.246669	0.198025	1818.363037
8352.014345	0.237188	0.198025	2052.704346
8352.015219	0.090714	0.198025	2131.988525
8352.016094	0.091359	0.198025	2211.927246
8352.017204	0.091542	0.198025	2313.538574
8352.018077	0.091549	0.198025	2393.460937
8352.018935	0.091458	0.198025	2471.931396
8352.020007	0.090916	0.198025	2569.392822
8352.020955	0.091069	0.198025	2655.726562
8352.021859	0.090901	0.198025	2737.900879
8352.022732	0.090648	0.198025	2817.036865
8352.023840	0.090732	0.198025	2917.568359
8353.035201	0.620706	0.208354	265.041260
8353.036246	0.281591	0.208354	559.303406
8353.037260	0.289021	0.208354	852.370728
8353.038155	0.285037	0.208354	1107.478516
8353.039107	0.272479	0.208354	1366.878784
8353.040167	0.252616	0.208354	1634.651733
8353.041092	0.245991	0.208354	1862.193604
8353.041962	0.256282	0.208354	2085.158691
8353.043023	0.090502	0.208354	2181.180908
8353.044034	0.091102	0.208354	2273.285400
8353.044914	0.091608	0.208354	2353.900146
8353.045890	0.091051	0.208354	2442.765869
8353.046943	0.091143	0.208354	2538.739014
8353.047841	0.090985	0.208354	2620.443604
8353.048707	0.091073	0.208354	2699.312744
8353.049771	0.090743	0.208354	2795.863770
8353.050771	0.090820	0.208354	2886.684082
8353.051663	0.090934	0.208354	2967.797119
8354.041789	0.644293	0.201546	272.536011
8354.042848	0.281869	0.201546	571.035156
8354.043866	0.289197	0.201546	865.437500
8354.044752	0.285081	0.201546	1118.018921
8354.045736	0.272117	0.201546	1385.781738
8354.046790	0.252389	0.201546	1651.799561
8354.047715	0.246240	0.201546	1879.571777
8354.048582	0.252209	0.201546	2098.237305
8354.049664	0.090732	0.201546	2196.409668
8354.050651	0.091472	0.201546	2286.692627
8354.051521	0.091626	0.201546	2366.407227
8354.052490	0.091176	0.201546	2454.756348
8354.053545	0.091157	0.201546	2550.927246
8354.054448	0.090842	0.201546	2632.957764
8354.055318	0.090901	0.201546	2712.041504
8354.056408	0.090743	0.201546	2810.951904
8354.057395	0.090546	0.201546	2900.320557
8354.058279	0.091132	0.201546	2980.880859
8355.077577	0.643689	0.207270	280.648407
8355.078441	0.279393	0.207270	522.044250
8355.079523	0.289135	0.207270	834.887817
8355.080531	0.285374	0.207270	1122.544312
8355.081413	0.274468	0.207270	1364.624878
8355.082394	0.255927	0.207270	1615.688843
8355.083473	0.246324	0.207270	1881.472900
8355.084370	0.255630	0.207270	2110.772949
8355.085238	0.090535	0.207270	2189.356934
8355.086345	0.091494	0.207270	2290.640869
8355.087321	0.091465	0.207270	2379.910645
8355.088189	0.091652	0.207270	2459.464355
8355.089262	0.091062	0.207270	2557.173828
8355.090299	0.090959	0.207270	2651.498779
8355.091182	0.091128	0.207270	2731.964844
8355.092109	0.090883	0.207270	2816.212891
8355.093181	0.090652	0.207270	2913.391602
8355.094134	0.090765	0.207270	2999.891113
8356.072992	0.538693	0.210146	279.042786
8356.073953	0.282459	0.210146	550.485413
8356.074822	0.289296	0.210146	801.883301
8356.075839	0.285502	0.210146	1092.238525
8356.076876	0.271967	0.210146	1374.267822
8356.077773	0.254110	0.210146	1602.204590
8356.078717	0.246779	0.210146	1835.163574
8356.079794	0.227831	0.210146	2080.537354
8356.080727	0.090667	0.210146	2165.129150
8356.081599	0.091776	0.210146	2245.157959
8356.082682	0.091450	0.210146	2344.198486
8356.083698	0.091490	0.210146	2437.152832
8356.084591	0.091542	0.210146	2518.899658
8356.085558	0.090970	0.210146	2606.868164
8356.086608	0.090850	0.210146	2702.260254
8356.087524	0.091139	0.210146	2785.743408
8356.088445	0.091003	0.210146	2869.557617
8356.089319	0.090831	0.210146	2948.944092
8357.120012	0.578826	0.201941	291.149323
8357.120903	0.280741	0.201941	541.289551
8357.121773	0.288816	0.201941	792.559387
8357.122850	0.285513	0.201941	1100.056519
8357.123827	0.273362	0.201941	1367.130981
8357.124696	0.256743	0.201941	1590.240723
8357.125719	0.246453	0.201941	1842.361816
8357.126763	0.228508	0.201941	2080.924561
8357.127654	0.090875	0.201941	2161.894287
8357.128583	0.091417	0.201941	2246.820801
8357.129654	0.091395	0.201941	2344.705078
8357.130595	0.091432	0.201941	2430.742432
8357.131457	0.091099	0.201941	2509.269531
8357.132503	0.090894	0.201941	2604.344238
8357.133519	0.090927	0.201941	2696.725586
8357.134408	0.091102	0.201941	2777.715576
8357.135355	0.090652	0.201941	2863.562988
8357.136396	0.090531	0.201941	2957.805664
8358.105017	0.631644	0.228544	267.817200
8358.106116	0.282565	0.228544	578.355835
8358.107083	0.289083	0.228544	857.899353
8358.107960	0.285381	0.228544	1108.178345
8358.109006	0.271780	0.228544	1392.459961
8358.110034	0.252466	0.228544	1651.994873
8358.110931	0.246339	0.228544	1872.961060
8358.111883	0.233555	0.228544	2095.305176
8358.112937	0.090677	0.228544	2190.879150
8358.113863	0.091586	0.228544	2275.687500
8358.114721	0.091886	0.228544	2354.525635
8358.115796	0.091267	0.228544	2452.637695
8358.116809	0.091271	0.228544	2545.094971
8358.117687	0.091355	0.228544	2625.304687
8358.118660	0.090970	0.228544	2713.818848
8358.119706	0.090699	0.228544	2808.690430
8358.120607	0.091007	0.228544	2890.687744
8358.121472	0.090817	0.228544	2969.244141
8359.160769	0.630381	0.201715	267.281464
8359.161685	0.280203	0.201715	523.947083
8359.162766	0.289501	0.201715	836.897400
8359.163713	0.286095	0.201715	1107.829346
8359.164575	0.275138	0.201715	1344.998291
8359.165616	0.255286	0.201715	1610.750610
8359.166659	0.246401	0.201715	1867.747314
8359.167552	0.253890	0.201715	2094.471436
8359.168509	0.090491	0.201715	2181.071045
8359.169563	0.091373	0.201715	2277.378418
8359.170483	0.091765	0.201715	2361.802246
8359.171349	0.091348	0.201715	2440.909424
8359.172430	0.091150	0.201715	2539.442383
8359.173428	0.090963	0.201715	2630.223633
8359.174318	0.091077	0.201715	2711.281982
8359.175286	0.090813	0.201715	2799.188965
8359.176343	0.090604	0.201715	2894.957764
8359.177252	0.090923	0.201715	2977.606689
8360.138786	0.511278	0.247928	264.330780
8360.139834	0.283440	0.247928	561.375854
8360.140732	0.289329	0.247928	821.192932
8360.141657	0.285114	0.247928	1084.922974
8360.142736	0.270743	0.247928	1377.055176
8360.143677	0.252495	0.247928	1614.653076
8360.144542	0.246365	0.247928	1827.758545
8360.145619	0.222235	0.247928	2067.105713
8360.146620	0.090967	0.247928	2158.163574
8360.147507	0.091692	0.247928	2239.494385
8360.148477	0.091417	0.247928	2328.169189
8360.149517	0.091198	0.247928	2423.014648
8360.150430	0.091494	0.247928	2506.548828
8360.151345	0.090927	0.247928	2589.746582
8360.152212	0.091157	0.247928	2668.779785
8360.153175	0.091055	0.247928	2756.465332
8360.154097	0.090948	0.247928	2840.319824
8360.154979	0.091040	0.247928	2920.617187
8361.196534	0.536938	0.206424	254.508850
8361.197416	0.280089	0.206424	501.547424
8361.198280	0.288622	0.206424	750.916687
8361.199366	0.285751	0.206424	1061.241943
8361.200287	0.274603	0.206424	1314.151489
8361.201160	0.258362	0.206424	1539.701416
8361.202131	0.247002	0.206424	1779.540283
8361.203169	0.273450	0.206424	2063.381104
8361.204063	0.090692	0.206424	2144.459961
8361.204928	0.091593	0.206424	2223.687988
8361.206007	0.091370	0.206424	2322.275879
8361.206941	0.091769	0.206424	2407.988037
8361.207802	0.091447	0.206424	2486.723389
8361.208876	0.090967	0.206424	2584.421631
8361.209870	0.090835	0.206424	2674.711670
8361.210757	0.091146	0.206424	2755.558350
8361.211722	0.090872	0.206424	2843.249512
8361.212769	0.090549	0.206424	2938.054687
8362.178604	0.511835	0.243940	267.689575
8362.179642	0.283165	0.243940	561.615112
8362.180535	0.289120	0.243940	819.799194
8362.181483	0.284927	0.243940	1089.909790
8362.182548	0.270743	0.243940	1378.251465
8362.183486	0.252649	0.243940	1615.236084
8362.184362	0.246123	0.243940	1830.839844
8362.185433	0.225663	0.243940	2072.524658
8362.186441	0.090857	0.243940	2164.108398
8362.187335	0.091604	0.243940	2246.002441
8362.188307	0.091373	0.243940	2334.817383
8362.189351	0.091230	0.243940	2430.062012
8362.190264	0.091238	0.243940	2513.362061
8362.191125	0.090842	0.243940	2591.577148
8362.192202	0.090894	0.243940	2689.469482
8362.193200	0.090919	0.243940	2780.206787
8362.194078	0.090842	0.243940	2859.966309
8362.195088	0.090652	0.243940	2951.524658
8363.228699	0.552290	0.208334	280.011047
8363.229700	0.282916	0.208334	563.210205
8363.230600	0.289255	0.208334	823.540039
8363.231574	0.285205	0.208334	1101.329834
8363.232633	0.271139	0.208334	1388.465942
8363.233550	0.253253	0.208334	1620.699097
8363.234417	0.246328	0.208334	1834.265625
8363.235521	0.236071	0.208334	2094.887451
8363.236481	0.090571	0.208334	2181.835937
8363.237363	0.091736	0.208334	2262.747070
8363.238389	0.091410	0.208334	2356.533691
8363.239436	0.091450	0.208334	2452.281982
8363.240329	0.091124	0.208334	2533.656006
8363.241209	0.090945	0.208334	2613.687500
8363.242298	0.090835	0.208334	2712.606689
8363.243244	0.090952	0.208334	2798.647461
8363.244102	0.091161	0.208334	2876.863525
8363.245149	0.090663	0.208334	2971.787598
8364.221965	0.569055	0.233124	288.510986
8364.222965	0.282733	0.233124	571.244141
8364.223858	0.289277	0.233124	829.568848
8364.224858	0.285282	0.233124	1114.850830
8364.225899	0.271531	0.233124	1397.514404
8364.226795	0.254022	0.233124	1625.118286
8364.227656	0.246544	0.233124	1837.392822
8364.228760	0.236891	0.233124	2098.920410
8364.229723	0.091003	0.233124	2186.556641
8364.230592	0.091655	0.233124	2266.205078
8364.231616	0.091516	0.233124	2359.917480
8364.232658	0.091304	0.233124	2455.055908
8364.233538	0.091241	0.233124	2535.348389
8364.234416	0.091113	0.233124	2615.345947
8364.235496	0.090820	0.233124	2713.431885
8364.236460	0.091058	0.233124	2801.212158
8364.237331	0.090765	0.233124	2880.268799
8364.238350	0.090652	0.233124	2972.643066
8365.257697	0.647069	0.218046	300.240051
8365.258797	0.283220	0.218046	611.782349
8365.259748	0.289259	0.218046	886.867676
8365.260614	0.285498	0.218046	1134.109009
8365.261670	0.271663	0.218046	1420.984741
8365.262705	0.252151	0.218046	1681.960937
8365.263587	0.246061	0.218046	1898.986572
8365.264570	0.214995	0.218046	2110.326660
8365.265620	0.090817	0.218046	2205.684082
8365.266538	0.091794	0.218046	2289.951416
8365.267393	0.091718	0.218046	2368.369873
8365.268429	0.091245	0.218046	2462.899902
8365.269436	0.091395	0.218046	2554.935059
8365.270320	0.091553	0.218046	2635.867676
8365.271295	0.091055	0.218046	2724.645996
8365.272352	0.090835	0.218046	2820.658447
8365.273267	0.091066	0.218046	2903.983643
8365.274129	0.090740	0.218046	2982.201416
8366.268944	0.579814	0.217450	293.965912
8366.269851	0.281093	0.217450	548.916809
8366.270715	0.288886	0.217450	798.513916
8366.271812	0.285326	0.217450	1111.516479
8366.272810	0.272428	0.217450	1383.399658
8366.273707	0.255461	0.217450	1612.548584
8366.274711	0.246566	0.217450	1860.101074
8366.275772	0.224026	0.217450	2097.792480
8366.276670	0.090758	0.217450	2179.293213
8366.277530	0.091414	0.217450	2257.908936
8366.278633	0.091381	0.217450	2358.701660
8366.279589	0.091355	0.217450	2446.037109
8366.280511	0.091198	0.217450	2530.121094
8366.281381	0.091428	0.217450	2609.663574
8366.282256	0.090776	0.217450	2689.092773
8366.283217	0.091135	0.217450	2776.673828
8366.284161	0.090648	0.217450	2862.245605
8366.285057	0.091179	0.217450	2943.942139
8367.285277	0.648647	0.226248	339.891266
8367.286248	0.282389	0.226248	614.090942
8367.287177	0.289237	0.226248	882.792175
8367.288048	0.286102	0.226248	1131.987305
8367.289091	0.273688	0.226248	1417.443604
8367.289980	0.256545	0.226248	1645.512451
8367.290851	0.246757	0.226248	1860.437500
8367.291784	0.251180	0.226248	2094.788818
8367.292781	0.090586	0.226248	2185.103027
8367.293694	0.091198	0.226248	2268.366455
8367.294580	0.091560	0.226248	2349.488770
8367.295574	0.091223	0.226248	2440.164551
8367.296492	0.091344	0.226248	2524.018311
8367.297412	0.091249	0.226248	2607.967285
8367.298278	0.090978	0.226248	2686.754150
8367.299316	0.090809	0.226248	2781.014160
8367.300198	0.090967	0.226248	2861.246826
8367.301064	0.090835	0.226248	2939.909912
8368.313786	0.643967	0.201800	271.110229
8368.314768	0.280521	0.201800	546.582092
8368.315789	0.289351	0.201800	842.009033
8368.316688	0.286209	0.201800	1099.310547
8368.317559	0.275303	0.201800	1339.099243
8368.318644	0.255436	0.201800	1616.247070
8368.319591	0.246610	0.201800	1849.786865
8368.320478	0.272325	0.201800	2091.339600
8368.321461	0.090798	0.201800	2180.594238
8368.322475	0.091915	0.201800	2273.796387
8368.323364	0.091772	0.201800	2355.382080
8368.324225	0.091483	0.201800	2434.149170
8368.325293	0.091000	0.201800	2531.336914
8368.326215	0.091241	0.201800	2615.461426
8368.327087	0.091011	0.201800	2694.822754
8368.328062	0.090923	0.201800	2783.472412
8368.329090	0.090890	0.201800	2876.907227
8368.329973	0.091018	0.201800	2957.276123
8369.315816	0.550345	0.243759	253.158920
8369.316692	0.280009	0.243759	498.446381
8369.317552	0.288721	0.243759	746.746216
8369.318658	0.285806	0.243759	1062.847290
8369.319569	0.274742	0.243759	1313.137695
8369.320438	0.258508	0.243759	1537.781372
8369.321425	0.246830	0.243759	1781.402344
8369.322442	0.265349	0.243759	2051.262451
8369.323337	0.090557	0.243759	2132.310547
8369.324204	0.091534	0.243759	2211.670898
8369.325309	0.091465	0.243759	2312.739502
8369.326223	0.091469	0.243759	2396.341797
8369.327104	0.091476	0.243759	2476.931885
8369.328088	0.091033	0.243759	2566.508057
8369.329091	0.091113	0.243759	2657.894775
8369.329978	0.091102	0.243759	2738.702393
8369.330838	0.090894	0.243759	2816.870850
8369.331913	0.090663	0.243759	2914.333496
8370.353596	0.644799	0.198480	273.394592
8370.354683	0.282440	0.198480	580.407104
8370.355685	0.289343	0.198480	870.329102
8370.356565	0.285231	0.198480	1121.332153
8370.357578	0.272014	0.198480	1396.882568
8370.358607	0.252469	0.198480	1656.673706
8370.359511	0.245966	0.198480	1879.026611
8370.360377	0.258168	0.198480	2102.599854
8370.361461	0.090754	0.198480	2200.977539
8370.362437	0.091564	0.198480	2290.343750
8370.363321	0.091794	0.198480	2371.489990
8370.364335	0.091190	0.198480	2463.956787
8370.365382	0.091113	0.198480	2559.352295
8370.366275	0.091113	0.198480	2640.716553
8370.367154	0.090864	0.198480	2720.586182
8370.368248	0.090718	0.198480	2819.831543
8370.369199	0.090850	0.198480	2906.229492
8370.370066	0.090729	0.198480	2984.891357
8371.350540	0.633420	0.247412	320.510712
8371.351601	0.283041	0.247412	620.816956
8371.352548	0.288801	0.247412	894.311768
8371.353415	0.284894	0.247412	1141.314697
8371.354475	0.271117	0.247412	1428.698730
8371.355495	0.251873	0.247412	1685.608765
8371.356378	0.246218	0.247412	1903.019531
8371.357378	0.201302	0.247412	2104.322021
8371.358431	0.090967	0.247412	2200.110107
8371.359339	0.091626	0.247412	2283.306396
8371.360195	0.091593	0.247412	2361.709961
8371.361277	0.091230	0.247412	2460.421387
8371.362272	0.091439	0.247412	2551.403320
8371.363148	0.091710	0.247412	2631.741455
8371.364127	0.090967	0.247412	2720.797852
8371.365164	0.090780	0.247412	2814.936768
8371.366066	0.090901	0.247412	2896.929443
8371.366933	0.090817	0.247412	2975.667480
8372.389815	0.638921	0.202078	270.263550
8372.390835	0.281415	0.202078	557.306641
8372.391880	0.289252	0.202078	859.574646
8372.392771	0.285491	0.202078	1113.946899
8372.393680	0.273636	0.202078	1362.682495
8372.394768	0.253923	0.202078	1638.951172
8372.395711	0.246464	0.202078	1871.366333
8372.396589	0.247266	0.202078	2088.465576
8372.397640	0.090579	0.202078	2183.663574
8372.398666	0.091450	0.202078	2277.491455
8372.399556	0.091659	0.202078	2359.067871
8372.400508	0.091359	0.202078	2446.041260
8372.401563	0.090945	0.202078	2541.988037
8372.402483	0.090941	0.202078	2625.653809
8372.403345	0.090875	0.202078	2703.988281
8372.404409	0.090762	0.202078	2800.558838
8372.405418	0.090498	0.202078	2891.871338
8372.406292	0.090703	0.202078	2971.145752
8373.388311	0.551609	0.242949	284.078583
8373.389209	0.281331	0.242949	536.713440
8373.390075	0.289098	0.242949	787.072205
8373.391171	0.285619	0.242949	1100.110596
8373.392137	0.273278	0.242949	1364.096802
8373.393021	0.256359	0.242949	1590.717773
8373.394036	0.246577	0.242949	1840.993652
8373.395091	0.234155	0.242949	2088.027588
8373.395968	0.090403	0.242949	2167.310791
8373.396857	0.091586	0.242949	2248.730469
8373.397944	0.091344	0.242949	2348.021484
8373.398890	0.091509	0.242949	2434.588867
8373.399747	0.091472	0.242949	2512.980469
8373.400762	0.090978	0.242949	2605.322998
8373.401821	0.091135	0.242949	2701.835205
8373.402693	0.090912	0.242949	2781.110352
8373.403630	0.090861	0.242949	2866.246826
8373.404703	0.090648	0.242949	2963.512451
8374.424600	0.552667	0.204019	284.070953
8374.425534	0.281693	0.204019	547.172363
8374.426399	0.288970	0.204019	797.131165
8374.427435	0.285454	0.204019	1092.861572
8374.428476	0.272347	0.204019	1376.375244
8374.429372	0.255132	0.204019	1604.973389
8374.430339	0.246566	0.204019	1843.402832
8374.431410	0.220957	0.204019	2080.047852
8374.432329	0.090970	0.204019	2163.649658
8374.433190	0.091487	0.204019	2242.419922
8374.434273	0.091403	0.204019	2341.408936
8374.435266	0.091113	0.204019	2431.884521
8374.436154	0.091370	0.204019	2513.020752
8374.437137	0.090956	0.204019	2602.430420
8374.438174	0.090992	0.204019	2696.789551
8374.439071	0.090872	0.204019	2778.301270
8374.439928	0.090839	0.204019	2856.149902
8374.441022	0.090571	0.204019	2955.234863
8375.428112	0.565540	0.239630	286.728546
8375.429007	0.280719	0.239630	537.972046
8375.429878	0.288644	0.239630	789.380798
8375.430986	0.284795	0.239630	1104.933594
8375.431963	0.272527	0.239630	1371.192383
8375.432840	0.255681	0.239630	1595.424683
8375.433914	0.246101	0.239630	1859.737305
8375.434956	0.209872	0.239630	2078.423828
8375.435855	0.091241	0.239630	2160.449951
8375.436784	0.091516	0.239630	2245.468506
8375.437849	0.091370	0.239630	2342.777100
8375.438780	0.091410	0.239630	2427.879639
8375.439640	0.091238	0.239630	2506.344238
8375.440702	0.090981	0.239630	2602.966553
8375.441716	0.091066	0.239630	2695.307129
8375.442589	0.091007	0.239630	2774.756348
8375.443556	0.090776	0.239630	2862.537109
8375.444605	0.090564	0.239630	2957.538818
8376.458696	0.620647	0.201179	270.602081
8376.459564	0.279177	0.201179	512.927917
8376.460633	0.288871	0.201179	821.730835
8376.461654	0.285062	0.201179	1112.779419
8376.462544	0.273695	0.201179	1356.368042
8376.463534	0.255341	0.201179	1609.155273
8376.464581	0.246200	0.201179	1866.926636
8376.465507	0.240198	0.201179	2089.349854
8376.466370	0.090787	0.201179	2167.699219
8376.467463	0.091329	0.201179	2267.522217
8376.468455	0.091538	0.201179	2358.327881
8376.469327	0.091454	0.201179	2438.075684
8376.470312	0.091256	0.201179	2527.962891
8376.471390	0.091062	0.201179	2626.127686
8376.472265	0.091113	0.201179	2705.851807
8376.473130	0.090890	0.201179	2784.471680
8376.474242	0.090802	0.201179	2885.443604
8376.475215	0.090505	0.201179	2973.505371
8377.467912	0.592855	0.238586	297.613312
8377.468799	0.280814	0.238586	546.695496
8377.469667	0.288754	0.238586	797.333679
8377.470762	0.285630	0.238586	1110.098389
8377.471723	0.273424	0.238586	1372.858887
8377.472614	0.256681	0.238586	1601.561523
8377.473629	0.246610	0.238586	1851.870728
8377.474684	0.229058	0.238586	2093.526611
8377.475574	0.090743	0.238586	2174.288330
8377.476464	0.091545	0.238586	2255.763672
8377.477566	0.091432	0.238586	2356.521484
8377.478521	0.091465	0.238586	2443.870361
8377.479444	0.091348	0.238586	2528.184326
8377.480321	0.091362	0.238586	2608.309082
8377.481232	0.090992	0.238586	2691.203125
8377.482175	0.091110	0.238586	2777.119385
8377.483101	0.090754	0.238586	2861.157959
8377.483958	0.090839	0.238586	2939.006592
8378.491374	0.577786	0.197389	274.448181
8378.492265	0.280316	0.197389	524.209900
8378.493143	0.288816	0.197389	777.790283
8378.494107	0.286714	0.197389	1054.182495
8378.495093	0.275797	0.197389	1326.118408
8378.496019	0.258505	0.197389	1565.493652
8378.496889	0.246819	0.197389	1780.226074
8378.497958	0.282147	0.197389	2081.841553
8378.498826	0.090513	0.197389	2160.406494
8378.499698	0.091512	0.197389	2240.205322
8378.500580	0.091560	0.197389	2320.961182
8378.501638	0.091644	0.197389	2417.920898
8378.502528	0.091410	0.197389	2499.275635
8378.503400	0.091490	0.197389	2579.055420
8378.504395	0.091102	0.197389	2669.702148
8378.505316	0.091022	0.197389	2753.533203
8378.506245	0.091143	0.197389	2838.204590
8378.507109	0.090787	0.197389	2916.644775
8379.508168	0.593386	0.221055	259.309784
8379.509049	0.279617	0.221055	505.652100
8379.509910	0.288626	0.221055	754.158691
8379.511014	0.286150	0.221055	1070.068115
8379.511913	0.275691	0.221055	1317.914307
8379.512785	0.259717	0.221055	1544.387329
8379.513801	0.247123	0.221055	1795.464111
8379.514800	0.259512	0.221055	2054.716309
8379.515677	0.090677	0.221055	2134.240479
8379.516540	0.091586	0.221055	2213.278809
8379.517631	0.091567	0.221055	2313.178711
8379.518550	0.091630	0.221055	2397.386230
8379.519431	0.091512	0.221055	2478.008789
8379.520421	0.091018	0.221055	2568.116699
8379.521424	0.090959	0.221055	2659.349121
8379.522314	0.090930	0.221055	2740.276855
8379.523173	0.090688	0.221055	2818.178223
8379.524264	0.090549	0.221055	2916.967529
8380.524989	0.641375	0.204849	275.149658
8380.525855	0.279716	0.204849	517.383362
8380.526927	0.289413	0.204849	827.633911
8380.527940	0.285857	0.204849	1117.207031
8380.528839	0.274303	0.204849	1363.805420
8380.529822	0.255905	0.204849	1615.359619
8380.530876	0.246328	0.204849	1874.989502
8380.531786	0.257933	0.204849	2109.708740
8380.532643	0.090546	0.204849	2187.306396
8380.533734	0.091472	0.204849	2287.102539
8380.534724	0.091637	0.204849	2377.823242
8380.535606	0.091501	0.204849	2458.527588
8380.536600	0.091198	0.204849	2549.177979
8380.537645	0.090959	0.204849	2644.230713
8380.538538	0.091176	0.204849	2725.650391
8380.539394	0.090648	0.204849	2803.245361
8380.540490	0.090645	0.204849	2902.591797
8380.541473	0.090798	0.204849	2991.846680
8381.548981	0.644066	0.213554	271.151855
8381.550007	0.281730	0.213554	560.206543
8381.551036	0.289515	0.213554	858.117920
8381.551932	0.285945	0.213554	1114.324463
8381.552883	0.274124	0.213554	1375.015869
8381.553960	0.253693	0.213554	1648.242798
8381.554899	0.246434	0.213554	1879.644653
8381.555768	0.249283	0.213554	2096.271973
8381.556830	0.090703	0.213554	2192.598633
8381.557828	0.091564	0.213554	2283.979248
8381.558717	0.091685	0.213554	2365.486816
8381.559677	0.091132	0.213554	2452.973145
8381.560720	0.091146	0.213554	2548.038574
8381.561636	0.090974	0.213554	2631.370850
8381.562501	0.090864	0.213554	2709.968506
8381.563571	0.090839	0.213554	2807.165771
8381.564562	0.090718	0.213554	2897.067139
8381.565439	0.090970	0.213554	2976.848145
8382.558148	0.644806	0.213731	280.490570
8382.559010	0.279368	0.213731	521.305542
8382.560083	0.288831	0.213731	831.220703
8382.561102	0.285289	0.213731	1121.930542
8382.561980	0.274420	0.213731	1362.871460
8382.562970	0.256084	0.213731	1616.394653
8382.564033	0.246361	0.213731	1878.276489
8382.564933	0.258464	0.213731	2110.894531
8382.565797	0.090637	0.213731	2189.205078
8382.566887	0.091381	0.213731	2288.810059
8382.567888	0.091674	0.213731	2380.575195
8382.568778	0.091659	0.213731	2462.151611
8382.569758	0.091230	0.213731	2551.557373
8382.570817	0.091033	0.213731	2647.960937
8382.571705	0.091135	0.213731	2728.889160
8382.572586	0.090828	0.213731	2808.908203
8382.573681	0.090696	0.213731	2908.220215
8382.574638	0.090879	0.213731	2995.191406
8383.588303	0.589904	0.213945	255.428223
8383.589200	0.279987	0.213945	506.576172
8383.590302	0.289080	0.213945	825.141907
8383.591251	0.285502	0.213945	1096.083008
8383.592112	0.274841	0.213945	1332.721436
8383.593166	0.255388	0.213945	1601.900635
8383.594197	0.246343	0.213945	1855.880005
8383.595088	0.245002	0.213945	2074.177246
8383.596066	0.090564	0.213945	2162.748779
8383.597124	0.091329	0.213945	2259.375244
8383.598045	0.091681	0.213945	2343.813477
8383.598900	0.091479	0.213945	2422.028320
8383.599950	0.091135	0.213945	2517.720215
8383.600962	0.091095	0.213945	2609.908203
8383.601853	0.090985	0.213945	2690.975830
8383.602828	0.090710	0.213945	2779.418457
8383.603881	0.090575	0.213945	2874.793945
8383.604796	0.090721	0.213945	2957.803955
8384.594385	0.576537	0.203979	251.946625
8384.595271	0.279946	0.203979	499.979065
8384.596284	0.288999	0.203979	792.735107
8384.597344	0.285432	0.203979	1095.293213
8384.598233	0.274083	0.203979	1338.953247
8384.599165	0.256637	0.203979	1578.138916
8384.600251	0.246456	0.203979	1845.790527
8384.601213	0.212501	0.203979	2050.216797
8384.602077	0.091000	0.203979	2128.840576
8384.603136	0.091399	0.203979	2225.632080
8384.604155	0.091648	0.203979	2319.021240
8384.605040	0.091776	0.203979	2400.243164
8384.605988	0.091311	0.203979	2486.806152
8384.607040	0.091106	0.203979	2582.649658
8384.607959	0.091194	0.203979	2666.456787
8384.608822	0.090959	0.203979	2744.954834
8384.609885	0.090842	0.203979	2841.520264
8384.610890	0.090593	0.203979	2932.566406
8385.627611	0.590233	0.206791	263.834229
8385.628485	0.279928	0.206791	508.491302
8385.629354	0.288728	0.206791	759.395996
8385.630411	0.286432	0.206791	1062.154541
8385.631331	0.275574	0.206791	1315.682373
8385.632262	0.258754	0.206791	1556.582031
8385.633128	0.247236	0.206791	1770.688721
8385.634183	0.275299	0.206791	2061.129150
8385.635079	0.090648	0.206791	2142.349854
8385.635953	0.091560	0.206791	2222.373291
8385.636957	0.091545	0.206791	2314.284912
8385.637894	0.091432	0.206791	2399.956543
8385.638816	0.091337	0.206791	2484.168945
8385.639683	0.091267	0.206791	2563.297607
8385.640713	0.090908	0.206791	2656.933105
8385.641585	0.091157	0.206791	2736.422119
8385.642460	0.090754	0.206791	2815.832275
8385.643420	0.090707	0.206791	2902.910889
8386.628034	0.634457	0.223412	272.816406
8386.628903	0.279382	0.223412	515.599609
8386.629940	0.289025	0.223412	815.318176
8386.630905	0.285970	0.223412	1091.279663
8386.631784	0.275262	0.223412	1333.235352
8386.632694	0.258186	0.223412	1568.184570
8386.633793	0.246654	0.223412	1839.257324
8386.634689	0.269037	0.223412	2080.314453
8386.635550	0.090458	0.223412	2158.198486
8386.636603	0.091333	0.223412	2254.372070
8386.637561	0.091527	0.223412	2342.054932
8386.638433	0.091399	0.223412	2421.754883
8386.639315	0.091194	0.223412	2502.187744
8386.640411	0.090948	0.223412	2601.867187
8386.641280	0.090945	0.223412	2680.898193
8386.642144	0.090938	0.223412	2759.468262
8386.643202	0.090769	0.223412	2855.501953
8386.644170	0.090692	0.223412	2943.291992
8387.664326	0.655649	0.209014	284.551849
8387.665188	0.279269	0.209014	525.281494
8387.666281	0.288871	0.209014	841.017334
8387.667290	0.285000	0.209014	1128.582275
8387.668172	0.273446	0.209014	1369.761719
8387.669166	0.255092	0.209014	1623.322754
8387.670223	0.246149	0.209014	1883.501953
8387.671120	0.245698	0.209014	2103.893311
8387.671987	0.090502	0.209014	2182.358398
8387.673088	0.091439	0.209014	2283.032959
8387.674047	0.091458	0.209014	2370.740723
8387.674925	0.091219	0.209014	2450.831543
8387.675922	0.091055	0.209014	2541.613037
8387.676977	0.091051	0.209014	2637.671875
8387.677868	0.091293	0.209014	2719.013672
8387.678737	0.090872	0.209014	2797.980957
8387.679860	0.090659	0.209014	2899.791260
8387.680825	0.090754	0.209014	2987.369141
8388.665943	0.486255	0.213417	278.624023
8388.666999	0.283916	0.213417	578.439331
8388.667873	0.289200	0.213417	831.200500
8388.668824	0.284366	0.213417	1101.633057
8388.669903	0.269341	0.213417	1392.251831
8388.670837	0.251440	0.213417	1627.097168
8388.671704	0.246141	0.213417	1840.501709
8388.672764	0.203251	0.213417	2055.947510
8388.673775	0.090798	0.213417	2147.744629
8388.674662	0.091556	0.213417	2228.955078
8388.675629	0.091399	0.213417	2317.337891
8388.676682	0.091326	0.213417	2413.503906
8388.677602	0.091227	0.213417	2497.432617
8388.678471	0.091154	0.213417	2576.645020
8388.679562	0.090835	0.213417	2675.745850
8388.680545	0.091018	0.213417	2765.216553
8388.681441	0.090868	0.213417	2846.634277
8388.682422	0.090710	0.213417	2935.621338
8389.701061	0.630886	0.210005	270.650208
8389.701975	0.280254	0.210005	526.802246
8389.703080	0.289519	0.210005	846.720825
8389.704024	0.285974	0.210005	1116.680420
8389.704888	0.274973	0.210005	1354.257202
8389.705948	0.255154	0.210005	1624.720215
8389.706976	0.246416	0.210005	1878.035889
8389.707855	0.261266	0.210005	2107.688477
8389.708815	0.090718	0.210005	2194.777588
8389.709870	0.091571	0.210005	2291.385010
8389.710790	0.091692	0.210005	2375.741455
8389.711654	0.091469	0.210005	2454.770264
8389.712721	0.091172	0.210005	2552.050537
8389.713727	0.091135	0.210005	2643.732666
8389.714617	0.091373	0.210005	2725.054932
8389.715597	0.090996	0.210005	2814.231201
8389.716651	0.090897	0.210005	2910.036865
8389.717555	0.090948	0.210005	2992.254395
8390.703107	0.579023	0.220370	285.458557
8390.704024	0.281532	0.220370	543.623352
8390.704885	0.289109	0.220370	792.546143
8390.705953	0.285758	0.220370	1097.735718
8390.706960	0.273047	0.220370	1372.693970
8390.707852	0.255879	0.220370	1600.937988
8390.708842	0.246647	0.220370	1845.118286
8390.709906	0.227373	0.220370	2087.043213
8390.710799	0.090634	0.220370	2167.979004
8390.711655	0.091208	0.220370	2246.053467
8390.712755	0.091351	0.220370	2346.540039
8390.713754	0.091593	0.220370	2438.041504
8390.714627	0.091406	0.220370	2517.839111
8390.715630	0.090974	0.220370	2609.086182
8390.716678	0.090959	0.220370	2704.411621
8390.717547	0.090970	0.220370	2783.464844
8390.718424	0.090703	0.220370	2863.011475
8390.719520	0.090571	0.220370	2962.277588
8391.736812	0.440317	0.211782	203.426636
8391.737692	0.280931	0.211782	450.646301
8391.738570	0.289332	0.211782	704.680054
8391.739579	0.286670	0.211782	993.929993
8391.740522	0.275541	0.211782	1253.764893
8391.741429	0.258424	0.211782	1488.155518
8391.742309	0.247035	0.211782	1705.546265
8391.743337	0.249525	0.211782	1962.058105
8391.744245	0.090769	0.211782	2044.476440
8391.745119	0.091707	0.211782	2124.627930
8391.746059	0.091611	0.211782	2210.742676
8391.747039	0.091633	0.211782	2300.543213
8391.747957	0.091219	0.211782	2384.282715
8391.748822	0.091033	0.211782	2463.026123
8391.749910	0.090985	0.211782	2562.017822
8391.750808	0.090938	0.211782	2643.679687
8391.751685	0.090875	0.211782	2723.377197
8391.752555	0.090901	0.211782	2802.460937
8392.741307	0.648618	0.214690	276.311340
8392.742291	0.280334	0.214690	552.160461
8392.743322	0.289065	0.214690	850.186401
8392.744203	0.285923	0.214690	1102.084473
8392.745065	0.275424	0.214690	1339.499634
8392.746137	0.255992	0.214690	1613.923584
8392.747060	0.246599	0.214690	1841.534546
8392.747940	0.281909	0.214690	2089.614746
8392.748888	0.090773	0.214690	2175.667236
8392.749932	0.091447	0.214690	2271.137451
8392.750824	0.091710	0.214690	2352.942871
8392.751690	0.091560	0.214690	2432.233887
8392.752739	0.091307	0.214690	2528.015381
8392.753696	0.091443	0.214690	2615.526123
8392.754574	0.091194	0.214690	2695.594238
8392.755507	0.090908	0.214690	2780.411621
8392.756552	0.090718	0.214690	2875.211670
8392.757428	0.090978	0.214690	2954.908203
8393.772083	0.511575	0.217631	274.204041
8393.773133	0.283726	0.217631	572.115906
8393.774009	0.289442	0.217631	825.667236
8393.774926	0.285304	0.217631	1087.291016
8393.776017	0.270718	0.217631	1382.644043
8393.776964	0.252678	0.217631	1621.930298
8393.777837	0.246467	0.217631	1837.096191
8393.778890	0.211633	0.217631	2059.946045
8393.779914	0.090762	0.217631	2152.885986
8393.780797	0.091798	0.217631	2233.943604
8393.781759	0.091425	0.217631	2321.894043
8393.782808	0.091201	0.217631	2417.563965
8393.783729	0.091179	0.217631	2501.540039
8393.784593	0.091110	0.217631	2580.258789
8393.785679	0.090890	0.217631	2678.965332
8393.786677	0.090839	0.217631	2769.622314
8393.787570	0.091132	0.217631	2851.002930
8393.788563	0.090729	0.217631	2941.096680
8394.781111	0.644586	0.215718	270.081635
8394.782163	0.282206	0.215718	566.962158
8394.783167	0.289457	0.215718	857.576782
8394.784052	0.285751	0.215718	1110.466187
8394.785047	0.273505	0.215718	1382.603271
8394.786096	0.253370	0.215718	1648.388794
8394.787013	0.246438	0.215718	1874.372437
8394.787885	0.258582	0.215718	2099.855469
8394.788965	0.090740	0.215718	2197.854492
8394.789954	0.091479	0.215718	2288.327637
8394.790828	0.091831	0.215718	2368.587891
8394.791816	0.091377	0.215718	2458.868408
8394.792869	0.091124	0.215718	2554.822266
8394.793746	0.091150	0.215718	2634.760742
8394.794616	0.090970	0.215718	2713.905029
8394.795717	0.090806	0.215718	2813.882080
8394.796701	0.091022	0.215718	2903.447510
8394.797566	0.090842	0.215718	2982.026123
8395.804642	0.633025	0.221248	293.723541
8395.805743	0.283264	0.221248	605.597412
8395.806691	0.289501	0.221248	880.044128
8395.807550	0.285608	0.221248	1125.381348
8395.808592	0.271893	0.221248	1408.694092
8395.809640	0.252198	0.221248	1672.998047
8395.810515	0.246339	0.221248	1888.544800
8395.811486	0.211282	0.221248	2093.699463
8395.812536	0.090710	0.221248	2188.945312
8395.813463	0.091692	0.221248	2273.943604
8395.814331	0.091736	0.221248	2353.570312
8395.815389	0.091201	0.221248	2450.061035
8395.816403	0.091311	0.221248	2542.650391
8395.817294	0.091080	0.221248	2623.802979
8395.818257	0.090776	0.221248	2711.220703
8395.819295	0.090791	0.221248	2805.461670
8395.820213	0.090685	0.221248	2888.710449
8395.821073	0.090850	0.221248	2966.841064
8396.820428	0.630945	0.211641	275.722870
8396.821292	0.279287	0.211641	517.026917
8396.822253	0.288827	0.211641	794.589600
8396.823222	0.286571	0.211641	1072.276855
8396.824141	0.276094	0.211641	1326.007080
8396.825022	0.259790	0.211641	1554.882080
8396.826041	0.246775	0.211641	1806.345703
8396.826949	0.294609	0.211641	2073.851074
8396.827828	0.090458	0.211641	2153.363525
8396.828707	0.091414	0.211641	2233.716064
8396.829751	0.091553	0.211641	2329.297119
8396.830634	0.091582	0.211641	2410.164062
8396.831503	0.091359	0.211641	2489.554687
8396.832509	0.091029	0.211641	2581.129883
8396.833414	0.090820	0.211641	2663.322266
8396.834324	0.091033	0.211641	2746.162109
8396.835194	0.090864	0.211641	2825.214111
8396.836216	0.090641	0.211641	2917.849121
8397.838880	0.538440	0.230018	274.604370
8397.839829	0.282187	0.230018	542.400269
8397.840710	0.289244	0.230018	797.224548
8397.841645	0.286194	0.230018	1064.815796
8397.842719	0.272849	0.230018	1357.855713
8397.843615	0.255157	0.230018	1586.476807
8397.844552	0.246775	0.230018	1817.704834
8397.845617	0.224077	0.230018	2056.346924
8397.846554	0.090813	0.230018	2141.438721
8397.847410	0.091630	0.230018	2219.873779
8397.848472	0.091366	0.230018	2316.904541
8397.849478	0.091644	0.230018	2409.098633
8397.850361	0.091432	0.230018	2489.833008
8397.851331	0.091124	0.230018	2578.223633
8397.852367	0.090992	0.230018	2672.491699
8397.853278	0.090952	0.230018	2755.349121
8397.854141	0.090992	0.230018	2833.875488
8397.855175	0.090634	0.230018	2927.590576
8398.860728	0.644817	0.211737	271.467896
8398.861790	0.282319	0.211737	571.291016
8398.862799	0.289332	0.211737	863.227295
8398.863697	0.285436	0.211737	1119.548584
8398.864685	0.272710	0.211737	1388.986084
8398.865734	0.252839	0.211737	1654.214600
8398.866644	0.246262	0.211737	1878.313232
8398.867516	0.257651	0.211737	2102.985107
8398.868618	0.090714	0.211737	2202.952148
8398.869589	0.091677	0.211737	2291.970703
8398.870468	0.091707	0.211737	2372.580811
8398.871482	0.091252	0.211737	2465.110840
8398.872523	0.091340	0.211737	2560.196045
8398.873407	0.091187	0.211737	2640.804932
8398.874275	0.091121	0.211737	2719.897705
8398.875373	0.090813	0.211737	2819.610352
8398.876328	0.090758	0.211737	2906.284180
8398.877188	0.090974	0.211737	2984.521973
8399.872512	0.578723	0.233603	282.995605
8399.873394	0.280734	0.233603	530.602661
8399.874326	0.289080	0.233603	800.024841
8399.875417	0.285590	0.233603	1111.603027
8399.876370	0.273508	0.233603	1372.256348
8399.877237	0.256417	0.233603	1594.570068
8399.878308	0.246570	0.233603	1858.646362
8399.879322	0.237803	0.233603	2099.778320
8399.880210	0.090868	0.233603	2180.468994
8399.881179	0.091487	0.233603	2269.119629
8399.882224	0.091410	0.233603	2364.643066
8399.883135	0.091685	0.233603	2448.167725
8399.883993	0.091260	0.233603	2526.468506
8399.885066	0.090978	0.233603	2624.087646
8399.886071	0.090883	0.233603	2715.424561
8399.886951	0.090645	0.233603	2795.191650
8399.887950	0.090692	0.233603	2885.793213
8399.888999	0.090667	0.233603	2980.902344
8400.900033	0.630883	0.209550	268.755981
8400.900998	0.280247	0.209550	539.193970
8400.902046	0.289208	0.209550	842.283691
8400.902977	0.285542	0.209550	1108.123291
8400.903840	0.274541	0.209550	1345.052246
8400.904900	0.255161	0.209550	1615.523071
8400.905914	0.246541	0.209550	1865.515137
8400.906798	0.265953	0.209550	2100.617920
8400.907781	0.090538	0.209550	2189.617187
8400.908825	0.091531	0.209550	2285.175293
8400.909731	0.091633	0.209550	2368.195068
8400.910587	0.091487	0.209550	2446.507812
8400.911652	0.091095	0.209550	2543.523926
8400.912649	0.091234	0.209550	2634.484375
8400.913538	0.091143	0.209550	2715.510254
8400.914517	0.090861	0.209550	2804.462891
8400.915562	0.090710	0.209550	2899.255371
8400.916462	0.090875	0.209550	2981.042969
8401.905176	0.634204	0.243843	328.517731
8401.906122	0.282012	0.243843	595.300781
8401.907037	0.289109	0.243843	859.835449
8401.907928	0.286106	0.243843	1114.755859
8401.908956	0.273827	0.243843	1396.249878
8401.909850	0.256838	0.243843	1625.863403
8401.910731	0.246654	0.243843	1843.165649
8401.911665	0.266902	0.243843	2092.451904
8401.912663	0.090575	0.243843	2182.845703
8401.913591	0.091490	0.243843	2267.748779
8401.914446	0.091527	0.243843	2346.004395
8401.915460	0.091311	0.243843	2438.593750
8401.916363	0.091293	0.243843	2521.031006
8401.917283	0.091066	0.243843	2604.811523
8401.918144	0.090934	0.243843	2683.105469
8401.919193	0.090938	0.243843	2778.499023
8401.920085	0.090773	0.243843	2859.468262
8401.920964	0.090927	0.243843	2939.392578
8402.940861	0.631813	0.206420	268.520416
8402.941961	0.283015	0.206420	579.837036
8402.942884	0.289687	0.206420	847.218628
8402.943766	0.286121	0.206420	1099.577026
8402.944765	0.273644	0.206420	1372.947144
8402.945769	0.254352	0.206420	1628.316406
8402.946653	0.246533	0.206420	1846.251709
8402.947520	0.263848	0.206420	2075.007568
8402.948613	0.090586	0.206420	2174.018066
8402.949520	0.091674	0.206420	2257.166016
8402.950385	0.091703	0.206420	2336.489014
8402.951371	0.091593	0.206420	2426.799805
8402.952378	0.091282	0.206420	2518.720459
8402.953276	0.091179	0.206420	2600.599365
8402.954139	0.090846	0.206420	2678.999512
8402.955238	0.090857	0.206420	2778.851318
8402.956156	0.090813	0.206420	2862.217529
8402.957015	0.090959	0.206420	2940.351807
8403.939769	0.644257	0.253551	270.587769
8403.940734	0.280605	0.253551	541.372070
8403.941814	0.289391	0.253551	853.914185
8403.942742	0.285271	0.253551	1118.645630
8403.943612	0.273644	0.253551	1356.715698
8403.944697	0.253546	0.253551	1631.813232
8403.945693	0.246339	0.253551	1877.166992
8403.946590	0.243124	0.253551	2095.249023
8403.947591	0.090740	0.253551	2186.079590
8403.948651	0.091238	0.253551	2282.791748
8403.949543	0.091736	0.253551	2364.620117
8403.950404	0.091384	0.253551	2443.302002
8403.951499	0.091124	0.253551	2543.083008
8403.952462	0.091099	0.253551	2630.811035
8403.953322	0.091205	0.253551	2709.247070
8403.954387	0.090776	0.253551	2805.923828
8403.955415	0.090696	0.253551	2899.159180
8403.956295	0.090883	0.253551	2979.135742
8404.979639	0.646765	0.203459	272.934875
8404.980601	0.280188	0.203459	542.475708
8404.981662	0.289189	0.203459	849.305725
8404.982594	0.285593	0.203459	1115.478638
8404.983461	0.274314	0.203459	1353.308838
8404.984550	0.254561	0.203459	1630.525269
8404.985544	0.246394	0.203459	1875.440918
8404.986448	0.255465	0.203459	2106.381348
8404.987441	0.090765	0.203459	2196.511475
8404.988495	0.091615	0.203459	2293.073730
8404.989400	0.091414	0.203459	2375.802979
8404.990257	0.091296	0.203459	2454.043945
8404.991344	0.091135	0.203459	2553.107910
8404.992344	0.091212	0.203459	2644.320068
8404.993223	0.091278	0.203459	2724.553467
8404.994238	0.090828	0.203459	2816.743408
8404.995280	0.090846	0.203459	2911.404785
8404.996159	0.091201	0.203459	2991.570557
8405.975506	0.566495	0.259811	252.656937
8405.976382	0.280034	0.259811	497.966888
8405.977393	0.289200	0.259811	790.348511
8405.978470	0.285612	0.259811	1097.952148
8405.979368	0.273885	0.259811	1343.901367
8405.980247	0.256527	0.259811	1569.388672
8405.981364	0.246504	0.259811	1844.733521
8405.982334	0.229047	0.259811	2066.908691
8405.983204	0.090509	0.259811	2145.651611
8405.984239	0.091450	0.259811	2240.302490
8405.985271	0.091370	0.259811	2334.595947
8405.986166	0.091271	0.259811	2416.283203
8405.987109	0.091117	0.259811	2502.206543
8405.988163	0.090850	0.259811	2597.961914
8405.989109	0.090758	0.259811	2683.819092
8405.989974	0.090872	0.259811	2762.423096
8405.991042	0.090677	0.259811	2859.266602
8405.992049	0.090593	0.259811	2950.494141
8407.016376	0.644103	0.208890	271.811401
8407.017409	0.281737	0.208890	562.845825
8407.018479	0.289233	0.208890	872.325562
8407.019356	0.285264	0.208890	1122.501831
8407.020289	0.272820	0.208890	1377.042725
8407.021357	0.253037	0.208890	1647.286377
8407.022304	0.246328	0.208890	1880.559082
8407.023182	0.254963	0.208890	2104.416992
8407.024238	0.090696	0.208890	2200.191650
8407.025247	0.091776	0.208890	2292.793701
8407.026134	0.091282	0.208890	2373.760498
8407.027082	0.091154	0.208890	2460.174072
8407.028142	0.091110	0.208890	2556.750244
8407.029070	0.091069	0.208890	2641.262695
8407.029938	0.091135	0.208890	2720.368164
8407.031007	0.090835	0.208890	2817.470703
8407.031999	0.091044	0.208890	2907.786133
8407.032891	0.090765	0.208890	2988.748779
8408.014859	0.565221	0.253886	284.306152
8408.015753	0.280646	0.253886	535.203491
8408.016616	0.288713	0.253886	784.363159
8408.017717	0.285114	0.253886	1098.273193
8408.018691	0.272761	0.253886	1363.942627
8408.019608	0.255044	0.253886	1597.817871
8408.020534	0.246368	0.253886	1825.955078
8408.021403	0.240930	0.253886	2035.323364
8408.022377	0.090491	0.253886	2123.461426
8408.023316	0.091575	0.253886	2209.450195
8408.024174	0.091505	0.253886	2287.961670
8408.025178	0.091549	0.253886	2379.876953
8408.026080	0.091135	0.253886	2462.081055
8408.027002	0.091245	0.253886	2546.208984
8408.027864	0.090967	0.253886	2624.622314
8408.028855	0.090923	0.253886	2714.726807
8408.029771	0.090802	0.253886	2797.901367
8408.030654	0.090732	0.253886	2878.018066
8409.049529	0.643901	0.211190	270.438568
8409.050447	0.279562	0.211190	527.076294
8409.051522	0.289069	0.211190	837.825073
8409.052412	0.285798	0.211190	1092.185547
8409.053279	0.275676	0.211190	1331.196899
8409.054331	0.256597	0.211190	1601.136597
8409.055297	0.246416	0.211190	1839.174438
8409.056173	0.283986	0.211190	2087.945801
8409.057048	0.090494	0.211190	2167.128418
8409.058155	0.091516	0.211190	2268.436768
8409.059036	0.091857	0.211190	2349.362549
8409.059904	0.091754	0.211190	2429.005127
8409.060968	0.091073	0.211190	2525.906738
8409.061941	0.090959	0.211190	2614.410400
8409.062815	0.091227	0.211190	2694.142578
8409.063674	0.090908	0.211190	2772.232666
8409.064774	0.090762	0.211190	2872.070557
8409.065674	0.090721	0.211190	2953.719727
8410.056129	0.630839	0.241769	268.737244
8410.057177	0.282253	0.241769	564.538818
8410.058195	0.289823	0.241769	859.578613
8410.059084	0.286146	0.241769	1113.962646
8410.060047	0.273816	0.241769	1377.647339
8410.061108	0.253594	0.241769	1646.710327
8410.062044	0.246453	0.241769	1877.390015
8410.062913	0.251404	0.241769	2095.859863
8410.063991	0.090652	0.241769	2193.582520
8410.065000	0.091663	0.241769	2286.070068
8410.065881	0.091545	0.241769	2366.721680
8410.066869	0.091381	0.241769	2457.005615
8410.067917	0.091194	0.241769	2552.576660
8410.068816	0.091274	0.241769	2634.632324
8410.069679	0.090901	0.241769	2713.079834
8410.070740	0.090850	0.241769	2809.471191
8410.071747	0.090710	0.241769	2900.816650
8410.072640	0.090743	0.241769	2981.850586
8411.081227	0.579459	0.221486	292.626923
8411.082122	0.281316	0.221486	544.404663
8411.082986	0.289131	0.221486	794.213745
8411.084111	0.285410	0.221486	1115.300171
8411.085084	0.272827	0.221486	1380.760986
8411.085955	0.255765	0.221486	1603.532593
8411.087032	0.246530	0.221486	1869.044922
8411.088062	0.199460	0.221486	2074.489258
8411.088946	0.090487	0.221486	2154.479736
8411.089868	0.091586	0.221486	2238.921631
8411.090944	0.091432	0.221486	2337.302246
8411.091880	0.091454	0.221486	2422.903076
8411.092741	0.091289	0.221486	2501.502930
8411.093797	0.091003	0.221486	2597.602539
8411.094831	0.091011	0.221486	2691.707764
8411.095703	0.091110	0.221486	2771.155273
8411.096664	0.090765	0.221486	2858.380859
8411.097743	0.090663	0.221486	2956.206055
8412.100648	0.552887	0.234848	286.948334
8412.101611	0.282242	0.234848	558.747803
8412.102486	0.288867	0.234848	811.506592
8412.103528	0.284579	0.234848	1108.037720
8412.104592	0.270648	0.234848	1396.007324
8412.105481	0.253165	0.234848	1621.071289
8412.106397	0.246218	0.234848	1846.607178
8412.107486	0.207836	0.234848	2072.940186
8412.108418	0.090908	0.234848	2157.666748
8412.109279	0.091666	0.234848	2236.591309
8412.110295	0.091556	0.234848	2329.612549
8412.111333	0.091161	0.234848	2424.237549
8412.112225	0.091260	0.234848	2505.641357
8412.113172	0.090930	0.234848	2591.752197
8412.114226	0.090912	0.234848	2687.573242
8412.115159	0.090948	0.234848	2772.428223
8412.116029	0.091055	0.234848	2851.645752
8412.117089	0.090736	0.234848	2947.825928
8413.109782	0.634409	0.229704	327.355133
8413.110846	0.283773	0.229704	629.289795
8413.111771	0.289497	0.229704	897.074585
8413.112639	0.285150	0.229704	1144.584961
8413.113716	0.271040	0.229704	1436.495117
8413.114717	0.251924	0.229704	1688.670898
8413.115609	0.246427	0.229704	1908.483765
8413.116606	0.203309	0.229704	2111.183105
8413.117660	0.090809	0.229704	2206.896240
8413.118567	0.091897	0.229704	2290.246826
8413.119428	0.091516	0.229704	2369.042236
8413.120520	0.091322	0.229704	2468.765869
8413.121504	0.091091	0.229704	2558.399658
8413.122387	0.091216	0.229704	2638.943115
8413.123385	0.090824	0.229704	2729.585449
8413.124435	0.090692	0.229704	2824.812256
8413.125311	0.090978	0.229704	2904.508789
8413.126168	0.090718	0.229704	2982.253906
8414.145502	0.647710	0.225321	297.298889
8414.146393	0.279976	0.225321	546.757141
8414.147365	0.288896	0.225321	827.564514
8414.148313	0.286340	0.225321	1099.015137
8414.149237	0.275387	0.225321	1353.472656
8414.150101	0.259145	0.225321	1577.374390
8414.151149	0.246779	0.225321	1835.998291
8414.152028	0.267495	0.225321	2071.126465
8414.152907	0.090425	0.225321	2150.609863
8414.153858	0.091069	0.225321	2237.216797
8414.154826	0.091293	0.225321	2325.588135
8414.155736	0.091099	0.225321	2408.487793
8414.156608	0.091062	0.225321	2487.893799
8414.157692	0.090956	0.225321	2586.489990
8414.158596	0.090754	0.225321	2668.531982
8414.159466	0.090703	0.225321	2747.443604
8414.160365	0.090677	0.225321	2828.962646
8414.161394	0.090498	0.225321	2922.085205
8415.137296	0.568213	0.252685	285.811066
8415.138218	0.281041	0.252685	544.931152
8415.139097	0.288442	0.252685	798.471985
8415.140070	0.285604	0.252685	1076.364868
8415.141102	0.272688	0.252685	1357.778931
8415.141999	0.255278	0.252685	1586.763550
8415.142866	0.246346	0.252685	1800.345947
8415.143949	0.249946	0.252685	2071.037842
8415.144870	0.090509	0.252685	2154.396729
8415.145739	0.091523	0.252685	2233.930664
8415.146714	0.091450	0.252685	2323.094727
8415.147747	0.091318	0.252685	2417.426514
8415.148627	0.091461	0.252685	2497.912354
8415.149495	0.091190	0.252685	2577.065430
8415.150553	0.090883	0.252685	2673.219238
8415.151489	0.090773	0.252685	2758.182373
8415.152368	0.090784	0.252685	2837.981201
8415.153307	0.090696	0.252685	2923.144531
8416.188861	0.644652	0.216745	275.266418
8416.189917	0.282206	0.216745	573.275757
8416.190943	0.289241	0.216745	870.036743
8416.191829	0.285476	0.216745	1122.968506
8416.192811	0.272889	0.216745	1390.945923
8416.193869	0.252803	0.216745	1658.411255
8416.194799	0.246255	0.216745	1887.428223
8416.195664	0.243754	0.216745	2098.275146
8416.196726	0.090710	0.216745	2194.609619
8416.197735	0.091337	0.216745	2286.768311
8416.198604	0.091490	0.216745	2366.273437
8416.199574	0.091359	0.216745	2454.891357
8416.200635	0.091113	0.216745	2551.562500
8416.201543	0.090927	0.216745	2634.123779
8416.202413	0.090879	0.216745	2713.188477
8416.203489	0.090908	0.216745	2811.005615
8416.204475	0.090802	0.216745	2900.536377
8416.205366	0.090842	0.216745	2981.476807
8417.169424	0.648754	0.255453	330.864349
8417.170481	0.283231	0.255453	630.239746
8417.171399	0.289233	0.255453	895.755981
8417.172265	0.285341	0.255453	1142.860962
8417.173341	0.271582	0.255453	1435.083252
8417.174344	0.252400	0.255453	1688.240356
8417.175221	0.246511	0.255453	1904.430664
8417.176225	0.210981	0.255453	2116.256104
8417.177266	0.090791	0.255453	2210.769531
8417.178158	0.091626	0.255453	2292.500000
8417.179014	0.091692	0.255453	2370.988281
8417.180101	0.091289	0.255453	2470.219482
8417.181070	0.091304	0.255453	2558.692871
8417.181953	0.091077	0.255453	2639.113525
8417.182955	0.090970	0.255453	2730.265869
8417.184013	0.090703	0.255453	2826.229736
8417.184901	0.090959	0.255453	2907.001709
8417.185779	0.090769	0.255453	2986.697021
8418.228164	0.630417	0.214279	269.818665
8418.229052	0.279778	0.214279	518.261353
8418.230162	0.289010	0.214279	839.062439
8418.231111	0.285282	0.214279	1109.795044
8418.231979	0.274230	0.214279	1347.826416
8418.233019	0.254821	0.214279	1612.839844
8418.234051	0.246431	0.214279	1867.156250
8418.234948	0.245592	0.214279	2087.452393
8418.235912	0.090637	0.214279	2174.826660
8418.236953	0.091399	0.214279	2269.972900
8418.237883	0.091615	0.214279	2355.174805
8418.238749	0.091373	0.214279	2434.303955
8418.239806	0.091095	0.214279	2530.591309
8418.240817	0.091132	0.214279	2622.725342
8418.241707	0.091117	0.214279	2703.819336
8418.242667	0.090831	0.214279	2791.017334
8418.243724	0.090707	0.214279	2886.894531
8418.244642	0.090582	0.214279	2970.049072
8419.205071	0.603289	0.260150	261.827240
8419.205949	0.279781	0.260150	507.475403
8419.206812	0.289006	0.260150	756.887878
8419.207830	0.287271	0.260150	1049.329224
8419.208758	0.276987	0.260150	1306.373413
8419.209624	0.261119	0.260150	1532.502808
8419.210668	0.247255	0.260150	1790.636719
8419.211546	0.276647	0.260150	2033.532593
8419.212460	0.090388	0.260150	2116.147461
8419.213334	0.091494	0.260150	2196.113281
8419.214331	0.091637	0.260150	2287.475342
8419.215251	0.091490	0.260150	2371.646484
8419.216128	0.091472	0.260150	2451.867676
8419.217226	0.091190	0.260150	2551.994385
8419.218117	0.090992	0.260150	2633.068604
8419.218988	0.091143	0.260150	2712.453857
8419.219888	0.090864	0.260150	2794.231689
8419.220899	0.090699	0.260150	2885.928955
8420.264396	1.180280	0.208616	518.142761
8420.265271	2.201748	0.208616	2444.672363
8420.266251	2.353799	0.208616	4751.395508
8420.267274	1.703613	0.208616	6494.191895
8420.268167	0.844633	0.208616	7248.448730
8420.269035	0.760280	0.208616	7908.371094
8420.270129	0.731071	0.208616	8708.162109
8420.271066	0.448195	0.208616	9128.120117
8420.271944	0.090341	0.208616	9207.439453
8420.272933	0.091322	0.208616	9297.756836
8420.273942	0.091685	0.208616	9390.266602
8420.274816	0.091637	0.208616	9470.357422
8420.275788	0.091366	0.208616	9559.165039
8420.276836	0.091007	0.208616	9654.540039
8420.277748	0.091113	0.208616	9737.635742
8420.278606	0.090762	0.208616	9815.509766
8420.279665	0.090839	0.208616	9911.708008
8420.280671	0.090806	0.208616	10003.058594
8421.244372	0.591035	0.244721	262.419617
8421.245237	0.280177	0.244721	504.772705
8421.246334	0.289263	0.244721	822.093872
8421.247342	0.284663	0.244721	1109.034302
8421.248233	0.272776	0.244721	1352.077637
8421.249256	0.253931	0.244721	1611.848633
8421.250310	0.246445	0.244721	1871.602051
8421.251201	0.231694	0.244721	2078.041748
8421.252090	0.090582	0.244721	2158.569336
8421.253201	0.091436	0.244721	2260.154297
8421.254142	0.091326	0.244721	2346.091797
8421.255007	0.091447	0.244721	2425.193115
8421.256029	0.091003	0.244721	2518.198730
8421.257064	0.091066	0.244721	2612.451660
8421.257957	0.090875	0.244721	2693.603271
8421.258892	0.090813	0.244721	2778.513428
8421.259954	0.090637	0.244721	2874.770020
8421.260889	0.090439	0.244721	2959.330811
8422.298554	0.631842	0.214364	267.901001
8422.299677	0.283114	0.214364	585.838013
8422.300644	0.289351	0.214364	865.640015
8422.301515	0.285271	0.214364	1114.111084
8422.302568	0.271366	0.214364	1399.859375
8422.303581	0.252195	0.214364	1655.332764
8422.304473	0.246288	0.214364	1875.021484
8422.305418	0.191748	0.214364	2056.223389
8422.306472	0.090699	0.214364	2151.820557
8422.307415	0.091655	0.214364	2238.251465
8422.308278	0.091296	0.214364	2317.040283
8422.309319	0.091249	0.214364	2412.030273
8422.310338	0.091066	0.214364	2504.826172
8422.311216	0.091121	0.214364	2584.830078
8422.312163	0.090894	0.214364	2670.906250
8422.313230	0.090714	0.214364	2767.698242
8422.314149	0.090762	0.214364	2851.108154
8422.315016	0.090564	0.214364	2929.627197
8423.284665	0.644000	0.237104	271.768097
8423.285667	0.281232	0.237104	553.562256
8423.286741	0.289431	0.237104	864.411316
8423.287616	0.285623	0.237104	1114.331055
8423.288486	0.273472	0.237104	1352.251465
8423.289604	0.253553	0.237104	1635.724243
8423.290582	0.246354	0.237104	1876.658203
8423.291454	0.254703	0.237104	2098.759521
8423.292476	0.090549	0.237104	2191.301025
8423.293517	0.091410	0.237104	2286.458740
8423.294408	0.091516	0.237104	2367.999512
8423.295342	0.091395	0.237104	2453.362793
8423.296401	0.091172	0.237104	2549.913818
8423.297341	0.091205	0.237104	2635.646240
8423.298202	0.090945	0.237104	2713.949707
8423.299250	0.090747	0.237104	2809.052734
8423.300259	0.090813	0.237104	2900.683105
8423.301150	0.090652	0.237104	2981.453857
8424.332816	0.647124	0.208785	329.386108
8424.333796	0.282122	0.208785	605.865234
8424.334699	0.289113	0.208785	866.933838
8424.335578	0.286106	0.208785	1118.421021
8424.336613	0.273047	0.208785	1401.024536
8424.337526	0.255520	0.208785	1634.314331
8424.338402	0.246603	0.208785	1850.338379
8424.339286	0.249617	0.208785	2070.999512
8424.340340	0.090608	0.208785	2166.500244
8424.341229	0.091469	0.208785	2247.815674
8424.342097	0.091439	0.208785	2327.184814
8424.343101	0.091238	0.208785	2418.787598
8424.344022	0.091373	0.208785	2502.942383
8424.344937	0.091227	0.208785	2586.414795
8424.345798	0.091143	0.208785	2664.888672
8424.346813	0.090765	0.208785	2757.015625
8424.347709	0.090824	0.208785	2838.393799
8424.348585	0.090831	0.208785	2917.961914
8425.324480	0.618713	0.229954	265.428040
8425.325495	0.281437	0.229954	551.086365
8425.326554	0.289351	0.229954	857.508667
8425.327434	0.285421	0.229954	1108.679321
8425.328323	0.273358	0.229954	1351.694702
8425.329412	0.253546	0.229954	1627.806396
8425.330377	0.246357	0.229954	1865.541260
8425.331256	0.253916	0.229954	2088.733398
8425.332270	0.090732	0.229954	2180.736084
8425.333312	0.091619	0.229954	2276.202637
8425.334199	0.091809	0.229954	2357.637207
8425.335139	0.091392	0.229954	2443.545410
8425.336210	0.091124	0.229954	2541.139404
8425.337152	0.091011	0.229954	2626.871582
8425.338018	0.090912	0.229954	2705.601318
8425.339079	0.090725	0.229954	2801.860596
8425.340092	0.090659	0.229954	2893.698242
8425.340987	0.090970	0.229954	2975.116699
8426.367422	0.633629	0.213655	269.292389
8426.368378	0.279825	0.213655	536.805542
8426.369445	0.288702	0.213655	844.851013
8426.370382	0.285048	0.213655	1111.940674
8426.371248	0.273779	0.213655	1349.033569
8426.372286	0.254462	0.213655	1613.164795
8426.373316	0.246185	0.213655	1866.735596
8426.374214	0.236279	0.213655	2078.914307
8426.375183	0.090505	0.213655	2166.614014
8426.376244	0.091362	0.213655	2263.549316
8426.377154	0.091414	0.213655	2346.735596
8426.378021	0.091227	0.213655	2425.829346
8426.379095	0.091029	0.213655	2523.594482
8426.380090	0.090875	0.213655	2614.015381
8426.380981	0.090989	0.213655	2695.086426
8426.381959	0.090864	0.213655	2783.951660
8426.383019	0.090597	0.213655	2879.984375
8426.383921	0.090765	0.213655	2961.854736
8427.362334	0.552092	0.227388	281.567078
8427.363344	0.282784	0.227388	567.179321
8427.364224	0.289083	0.227388	821.572632
8427.365231	0.284934	0.227388	1108.501221
8427.366290	0.270850	0.227388	1395.330933
8427.367191	0.253235	0.227388	1623.495605
8427.368053	0.246412	0.227388	1835.903076
8427.369187	0.219657	0.227388	2084.994141
8427.370139	0.090806	0.227388	2171.441162
8427.370996	0.091655	0.227388	2249.989746
8427.372021	0.091436	0.227388	2343.711182
8427.373082	0.091509	0.227388	2440.802002
8427.373961	0.091476	0.227388	2521.209229
8427.374884	0.090985	0.227388	2605.188477
8427.375942	0.090769	0.227388	2701.222168
8427.376887	0.091033	0.227388	2787.248047
8427.377751	0.090956	0.227388	2865.833984
8427.378788	0.090714	0.227388	2959.904541
8428.402613	0.645626	0.216946	270.517395
8428.403598	0.281404	0.216946	547.700134
8428.404528	0.289156	0.216946	816.615662
8428.405398	0.286483	0.216946	1065.855957
8428.406463	0.274325	0.216946	1358.011963
8428.407357	0.257025	0.216946	1587.792480
8428.408281	0.247031	0.216946	1816.049316
8428.409149	0.293870	0.216946	2071.128174
8428.410146	0.090630	0.216946	2161.486084
8428.411066	0.091249	0.216946	2245.435059
8428.411925	0.091696	0.216946	2324.201660
8428.412994	0.091443	0.216946	2421.954102
8428.413898	0.091417	0.216946	2504.595215
8428.414772	0.091439	0.216946	2584.513184
8428.415701	0.091212	0.216946	2669.249268
8428.416679	0.090905	0.216946	2758.153809
8428.417591	0.090912	0.216946	2841.065430
8428.418481	0.090868	0.216946	2921.937988
8429.397956	0.631128	0.237825	268.860474
8429.398852	0.280298	0.237825	520.007324
8429.399878	0.289581	0.237825	817.117737
8429.400774	0.286739	0.237825	1074.036377
8429.401636	0.276467	0.237825	1312.351196
8429.402727	0.257270	0.237825	1593.033325
8429.403624	0.246837	0.237825	1814.446289
8429.404510	0.296316	0.237825	2076.982178
8429.405518	0.090447	0.237825	2168.152588
8429.406513	0.091758	0.237825	2259.451660
8429.407406	0.091816	0.237825	2341.443604
8429.408270	0.091630	0.237825	2420.611572
8429.409365	0.091410	0.237825	2520.705322
8429.410268	0.091223	0.237825	2603.079834
8429.411140	0.091069	0.237825	2682.492187
8429.412147	0.090861	0.237825	2773.988770
8429.413137	0.090970	0.237825	2864.049561
8429.414016	0.091190	0.237825	2944.205811
8430.441515	0.638199	0.214183	343.989502
8430.442585	0.284008	0.214183	647.877625
8430.443502	0.289475	0.214183	913.326294
8430.444374	0.285081	0.214183	1161.916504
8430.445485	0.270157	0.214183	1462.061401
8430.446455	0.251807	0.214183	1706.313843
8430.447323	0.246409	0.214183	1920.196533
8430.448389	0.202361	0.214183	2135.913086
8430.449437	0.091117	0.214183	2231.403564
8430.450324	0.091820	0.214183	2312.847900
8430.451229	0.091575	0.214183	2395.722900
8430.452294	0.091194	0.214183	2492.844238
8430.453257	0.091531	0.214183	2580.988281
8430.454117	0.091359	0.214183	2659.556641
8430.455163	0.090828	0.214183	2754.562256
8430.456185	0.091029	0.214183	2847.593994
8430.457064	0.090780	0.214183	2927.389648
8430.458028	0.090780	0.214183	3014.901611
8431.433677	0.599125	0.234083	260.619263
8431.434639	0.280507	0.234083	530.466553
8431.435698	0.289237	0.234083	836.768555
8431.436625	0.285597	0.234083	1101.516846
8431.437488	0.274325	0.234083	1338.259277
8431.438552	0.254553	0.234083	1609.103882
8431.439573	0.246394	0.234083	1860.672241
8431.440456	0.234353	0.234083	2067.605957
8431.441457	0.090575	0.234083	2158.271484
8431.442501	0.091479	0.234083	2253.776123
8431.443388	0.091681	0.234083	2335.097168
8431.444250	0.091311	0.234083	2413.807373
8431.445336	0.091117	0.234083	2512.760254
8431.446326	0.090959	0.234083	2602.810059
8431.447216	0.091128	0.234083	2683.913818
8431.448189	0.090806	0.234083	2772.267822
8431.449243	0.090725	0.234083	2867.892090
8431.450135	0.090824	0.234083	2948.906982
8432.480184	0.644136	0.217599	272.469421
8432.481127	0.280287	0.217599	536.779907
8432.482183	0.289457	0.217599	842.446289
8432.483123	0.285875	0.217599	1111.169067
8432.483995	0.274735	0.217599	1350.738037
8432.485070	0.254619	0.217599	1624.453613
8432.486081	0.246511	0.217599	1873.676514
8432.486980	0.254033	0.217599	2102.052246
8432.487940	0.090641	0.217599	2189.067383
8432.488998	0.091428	0.217599	2285.798340
8432.489914	0.091908	0.217599	2369.986084
8432.490775	0.091505	0.217599	2448.771973
8432.491862	0.091124	0.217599	2547.823975
8432.492850	0.090930	0.217599	2637.663086
8432.493727	0.091289	0.217599	2717.723633
8432.494715	0.090850	0.217599	2807.483154
8432.495760	0.090721	0.217599	2902.287109
8432.496649	0.090824	0.217599	2983.029541
8433.468447	0.552374	0.232552	283.368011
8433.469438	0.282620	0.232552	563.444092
8433.470331	0.289036	0.232552	821.552917
8433.471352	0.284901	0.232552	1112.437012
8433.472406	0.270853	0.232552	1397.916382
8433.473292	0.253257	0.232552	1622.301880
8433.474178	0.246244	0.232552	1840.473999
8433.475284	0.197216	0.232552	2058.594482
8433.476224	0.090828	0.232552	2143.972412
8433.477083	0.091813	0.232552	2222.839600
8433.478121	0.091447	0.232552	2317.760986
8433.479151	0.091443	0.232552	2411.947266
8433.480021	0.091410	0.232552	2491.473877
8433.480942	0.091183	0.232552	2575.453369
8433.482017	0.090872	0.232552	2673.140381
8433.482968	0.090970	0.232552	2759.653320
8433.483833	0.090732	0.232552	2838.136963
8433.484854	0.090758	0.232552	2930.801025
8434.520517	0.659121	0.211701	286.717682
8434.521384	0.279767	0.211701	529.275513
8434.522416	0.289274	0.211701	827.805908
8434.523313	0.286681	0.211701	1084.958740
8434.524192	0.276636	0.211701	1328.121582
8434.525151	0.259102	0.211701	1576.599976
8434.526140	0.247097	0.211701	1820.979126
8434.527061	0.287131	0.211701	2085.427002
8434.527927	0.090315	0.211701	2163.639648
8434.528948	0.091388	0.211701	2256.946777
8434.529846	0.091758	0.211701	2339.345215
8434.530716	0.091498	0.211701	2418.948242
8434.531588	0.091432	0.211701	2498.676758
8434.532634	0.091139	0.211701	2594.008057
8434.533526	0.091091	0.211701	2675.261475
8434.534400	0.091263	0.211701	2755.025635
8434.535414	0.090732	0.211701	2847.028320
8434.536330	0.091190	0.211701	2930.558594
8435.502112	0.524835	0.242139	274.488831
8435.503021	0.281792	0.242139	530.637756
8435.503906	0.289153	0.242139	786.538025
8435.504940	0.285564	0.242139	1081.811157
8435.505928	0.272747	0.242139	1351.284790
8435.506816	0.255439	0.242139	1578.114990
8435.507830	0.246409	0.242139	1827.973389
8435.508887	0.226791	0.242139	2067.691162
8435.509766	0.091022	0.242139	2147.699219
8435.510655	0.091571	0.242139	2229.105957
8435.511747	0.091421	0.242139	2328.937500
8435.512700	0.091696	0.242139	2416.323242
8435.513557	0.092018	0.242139	2495.182617
8435.514581	0.091022	0.242139	2588.388916
8435.515635	0.090989	0.242139	2684.291016
8435.516513	0.091260	0.242139	2764.416992
8435.517451	0.090652	0.242139	2849.448486
8435.518504	0.090688	0.242139	2944.943359
8436.559299	0.644700	0.216990	277.865570
8436.560169	0.279554	0.216990	521.077942
8436.561208	0.289266	0.216990	821.625671
8436.562236	0.285637	0.216990	1115.260742
8436.563137	0.273984	0.216990	1362.120605
8436.564094	0.255952	0.216990	1607.066772
8436.565148	0.246595	0.216990	1866.978394
8436.566091	0.255300	0.216990	2107.726562
8436.566952	0.090688	0.216990	2185.809326
8436.568016	0.091432	0.216990	2283.092773
8436.569009	0.091479	0.216990	2373.931885
8436.569894	0.091820	0.216990	2455.192627
8436.570876	0.091154	0.216990	2544.705322
8436.571929	0.091047	0.216990	2640.578125
8436.572832	0.091165	0.216990	2722.899658
8436.573688	0.090989	0.216990	2800.786133
8436.574778	0.090743	0.216990	2899.696533
8436.575764	0.090714	0.216990	2989.140625
8437.536702	0.644553	0.258583	275.224213
8437.537730	0.281466	0.258583	564.571289
8437.538779	0.289014	0.258583	867.746643
8437.539673	0.284894	0.258583	1122.441650
8437.540607	0.272457	0.258583	1376.916748
8437.541678	0.252407	0.258583	1647.244873
8437.542628	0.246240	0.258583	1881.173096
8437.543499	0.245709	0.258583	2095.185791
8437.544558	0.090604	0.258583	2191.135742
8437.545561	0.091707	0.258583	2283.117432
8437.546449	0.091586	0.258583	2364.445557
8437.547418	0.091370	0.258583	2452.982666
8437.548454	0.091132	0.258583	2547.395020
8437.549363	0.091187	0.258583	2630.283691
8437.550219	0.091014	0.258583	2708.191895
8437.551302	0.090740	0.258583	2806.463135
8437.552292	0.090623	0.258583	2896.179443
8437.553166	0.090784	0.258583	2975.524414
8438.595574	0.481871	0.221506	229.852615
8438.596471	0.280847	0.221506	481.772522
8438.597403	0.288834	0.221506	750.966003
8438.598266	0.286399	0.221506	998.128296
8438.599266	0.275471	0.221506	1273.599487
8438.600196	0.257926	0.221506	1513.470703
8438.601059	0.247137	0.221506	1726.750366
8438.602070	0.292028	0.221506	2021.990234
8438.602972	0.090707	0.221506	2103.807861
8438.603889	0.091615	0.221506	2187.818848
8438.604769	0.091556	0.221506	2268.388428
8438.605748	0.091670	0.221506	2358.133301
8438.606677	0.091187	0.221506	2442.845703
8438.607569	0.091168	0.221506	2524.167725
8438.608582	0.091095	0.221506	2616.447021
8438.609470	0.091146	0.221506	2697.384766
8438.610346	0.091040	0.221506	2777.135742
8438.611236	0.090721	0.221506	2857.877930
8439.574517	0.646637	0.268287	312.325653
8439.575511	0.282220	0.268287	592.852783
8439.576446	0.288926	0.268287	862.998413
8439.577334	0.285718	0.268287	1116.715820
8439.578338	0.273384	0.268287	1391.193115
8439.579256	0.255308	0.268287	1625.565552
8439.580181	0.246522	0.268287	1853.598633
8439.581054	0.238546	0.268287	2061.849365
8439.582098	0.090970	0.268287	2156.822510
8439.582984	0.091743	0.268287	2238.106934
8439.583851	0.091765	0.268287	2317.667236
8439.584847	0.091355	0.268287	2408.656738
8439.585763	0.091366	0.268287	2492.347900
8439.586663	0.091399	0.268287	2574.606934
8439.587546	0.091392	0.268287	2655.305664
8439.588566	0.091069	0.268287	2748.196289
8439.589463	0.091304	0.268287	2830.095703
8439.590336	0.090985	0.268287	2909.525635
8440.629188	0.603032	0.224765	262.319031
8440.630052	0.279880	0.224765	504.135681
8440.631172	0.289299	0.224765	828.150940
8440.632133	0.285736	0.224765	1102.743286
8440.632998	0.274460	0.224765	1340.151611
8440.634051	0.254751	0.224765	1608.404419
8440.635096	0.246566	0.224765	1866.066040
8440.635983	0.247028	0.224765	2085.179443
8440.636908	0.090648	0.224765	2169.029053
8440.637963	0.091487	0.224765	2265.547607
8440.638905	0.091582	0.224765	2351.817871
8440.639766	0.091553	0.224765	2430.644775
8440.640805	0.091121	0.224765	2525.319092
8440.641841	0.091102	0.224765	2619.701172
8440.642720	0.091077	0.224765	2699.757568
8440.643670	0.090923	0.224765	2786.134277
8440.644727	0.090634	0.224765	2881.933838
8440.645654	0.090645	0.224765	2965.961426
8441.616912	0.647974	0.257975	331.114532
8441.617977	0.283997	0.257975	633.570923
8441.618917	0.289702	0.257975	905.890930
8441.619784	0.285377	0.257975	1153.312988
8441.620879	0.270304	0.257975	1449.295776
8441.621883	0.251221	0.257975	1701.521362
8441.622780	0.246350	0.257975	1922.497437
8441.623769	0.192832	0.257975	2113.208252
8441.624814	0.090868	0.257975	2208.165283
8441.625725	0.091494	0.257975	2291.516357
8441.626584	0.091428	0.257975	2370.053223
8441.627662	0.091190	0.257975	2468.356201
8441.628666	0.091223	0.257975	2559.944336
8441.629545	0.091022	0.257975	2639.952393
8441.630546	0.090930	0.257975	2730.973389
8441.631601	0.090853	0.257975	2826.823486
8441.632480	0.091099	0.257975	2906.899170
8441.633356	0.090725	0.257975	2986.374268
8442.659765	0.644963	0.229893	271.529572
8442.660868	0.282905	0.229893	583.574097
8442.661867	0.289241	0.229893	872.525574
8442.662768	0.284645	0.229893	1128.990479
8442.663771	0.271168	0.229893	1400.972168
8442.664836	0.251587	0.229893	1668.912231
8442.665728	0.246368	0.229893	1888.672852
8442.666637	0.245098	0.229893	2111.466553
8442.667710	0.090784	0.229893	2208.877441
8442.668657	0.092076	0.229893	2296.073730
8442.669518	0.091458	0.229893	2374.818604
8442.670552	0.091282	0.229893	2469.203857
8442.671579	0.091285	0.229893	2562.953857
8442.672465	0.091051	0.229893	2643.625000
8442.673408	0.090908	0.229893	2729.351562
8442.674479	0.090769	0.229893	2826.565186
8442.675405	0.090769	0.229893	2910.617432
8442.676266	0.090890	0.229893	2988.873535
8443.660365	0.489657	0.250132	279.104492
8443.661416	0.283700	0.250132	577.273193
8443.662312	0.288860	0.250132	836.091614
8443.663240	0.283762	0.250132	1099.422974
8443.664316	0.268802	0.250132	1388.654419
8443.665266	0.251096	0.250132	1627.195801
8443.666130	0.246237	0.250132	1839.944214
8443.667182	0.217848	0.250132	2069.120117
8443.668204	0.091058	0.250132	2162.181641
8443.669084	0.091838	0.250132	2242.999512
8443.670035	0.091582	0.250132	2330.093994
8443.671091	0.091322	0.250132	2426.530029
8443.672006	0.091165	0.250132	2509.945557
8443.672876	0.091022	0.250132	2589.134521
8443.673922	0.090908	0.250132	2684.224609
8443.674938	0.090831	0.250132	2776.509277
8443.675823	0.091194	0.250132	2857.215820
8443.676800	0.090659	0.250132	2945.789795
8444.688835	0.629293	0.238804	267.449615
8444.689710	0.279177	0.238804	511.729706
8444.690581	0.288420	0.238804	762.943848
8444.691642	0.286014	0.238804	1066.405151
8444.692541	0.275541	0.238804	1314.116333
8444.693416	0.259559	0.238804	1541.230713
8444.694411	0.247017	0.238804	1787.012207
8444.695351	0.266884	0.238804	2037.882690
8444.696285	0.090582	0.238804	2122.486572
8444.697149	0.091483	0.238804	2201.528076
8444.698186	0.091721	0.238804	2296.643066
8444.699063	0.091674	0.238804	2377.040771
8444.699932	0.091373	0.238804	2456.444092
8444.700895	0.090905	0.238804	2543.985107
8444.701836	0.091150	0.238804	2629.757080
8444.702752	0.091088	0.238804	2713.193359
8444.703631	0.091022	0.238804	2793.201416
8444.704660	0.090791	0.238804	2886.625488
8445.705154	0.648907	0.229716	280.976929
8445.706023	0.279521	0.229716	523.881104
8445.707126	0.289098	0.229716	842.756104
8445.708125	0.285366	0.229716	1127.836914
8445.709018	0.273867	0.229716	1372.400269
8445.710021	0.254985	0.229716	1628.150513
8445.711062	0.246442	0.229716	1884.696289
8445.711969	0.242018	0.229716	2104.206543
8445.712829	0.090769	0.229716	2182.267822
8445.713922	0.091527	0.229716	2282.306885
8445.714906	0.091648	0.229716	2372.488525
8445.715785	0.091406	0.229716	2452.834717
8445.716803	0.091198	0.229716	2545.673828
8445.717839	0.091014	0.229716	2639.964844
8445.718719	0.091271	0.229716	2720.283203
8445.719583	0.090769	0.229716	2798.707764
8445.720689	0.090648	0.229716	2898.964600
8445.721660	0.090806	0.229716	2987.136963
8446.719417	0.631794	0.247118	267.880859
8446.720537	0.282905	0.247118	584.734741
8446.721513	0.289310	0.247118	867.101562
8446.722374	0.285304	0.247118	1112.748291
8446.723480	0.270674	0.247118	1412.113525
8446.724517	0.251411	0.247118	1672.826904
8446.725392	0.246244	0.247118	1888.290283
8446.726333	0.229160	0.247118	2103.929932
8446.727394	0.091000	0.247118	2200.480713
8446.728328	0.091663	0.247118	2286.093506
8446.729195	0.091622	0.247118	2365.530029
8446.730236	0.091329	0.247118	2460.603760
8446.731259	0.091366	0.247118	2554.071045
8446.732144	0.091223	0.247118	2634.803467
8446.733098	0.091033	0.247118	2721.648682
8446.734159	0.090952	0.247118	2818.148926
8446.735089	0.090930	0.247118	2902.713867
8446.735951	0.090721	0.247118	2980.915771
8447.748549	0.603021	0.223766	257.490051
8447.749453	0.279763	0.223766	510.395996
8447.750530	0.288977	0.223766	821.624268
8447.751485	0.285348	0.223766	1094.131470
8447.752350	0.274523	0.223766	1331.593628
8447.753402	0.254890	0.223766	1599.738037
8447.754431	0.246160	0.223766	1853.036377
8447.755316	0.245164	0.223766	2070.006104
8447.756271	0.090590	0.223766	2156.519287
8447.757328	0.091377	0.223766	2253.104736
8447.758257	0.091600	0.223766	2338.201416
8447.759117	0.091168	0.223766	2416.605957
8447.760153	0.091022	0.223766	2510.904541
8447.761170	0.091003	0.223766	2603.455078
8447.762063	0.091249	0.223766	2684.940186
8447.763027	0.090813	0.223766	2772.483887
8447.764098	0.090776	0.223766	2869.705322
8447.765021	0.090974	0.223766	2953.674316
8448.750604	0.579401	0.263993	292.017944
8448.751523	0.281440	0.263993	550.661743
8448.752388	0.288922	0.263993	800.579346
8448.753468	0.284952	0.263993	1108.327881
8448.754483	0.271278	0.263993	1383.675171
8448.755384	0.253718	0.263993	1612.275269
8448.756358	0.246559	0.263993	1852.423584
8448.757413	0.225363	0.263993	2090.181152
8448.758321	0.090945	0.263993	2172.759033
8448.759182	0.091564	0.263993	2251.595459
8448.760272	0.091447	0.263993	2351.272217
8448.761265	0.091377	0.263993	2442.009521
8448.762147	0.091351	0.263993	2522.581299
8448.763151	0.091058	0.263993	2614.003906
8448.764209	0.091080	0.263993	2710.366943
8448.765084	0.091022	0.263993	2790.010986
8448.765954	0.090842	0.263993	2869.043701
8448.767059	0.090729	0.263993	2969.299072
8449.788857	0.658136	0.214340	276.417114
8449.789921	0.281876	0.214340	576.333374
8449.790925	0.288999	0.214340	866.488403
8449.791821	0.285172	0.214340	1122.002563
8449.792804	0.272355	0.214340	1389.727295
8449.793869	0.252114	0.214340	1658.229004
8449.794792	0.246101	0.214340	1885.380249
8449.795662	0.246255	0.214340	2099.622070
8449.796703	0.090645	0.214340	2193.982910
8449.797706	0.091425	0.214340	2285.681641
8449.798596	0.091710	0.214340	2367.303711
8449.799586	0.091344	0.214340	2457.734375
8449.800637	0.091190	0.214340	2553.575195
8449.801549	0.090959	0.214340	2636.530273
8449.802411	0.090919	0.214340	2714.902588
8449.803506	0.090795	0.214340	2814.322754
8449.804473	0.090593	0.214340	2901.926514
8449.805352	0.090714	0.214340	2981.664307
8450.784712	0.632216	0.263884	276.910400
8450.785577	0.279364	0.263884	518.560303
8450.786668	0.289138	0.263884	834.010010
8450.787658	0.285183	0.263884	1116.341309
8450.788538	0.273992	0.263884	1357.453979
8450.789551	0.255205	0.263884	1615.976807
8450.790616	0.246259	0.263884	1878.242187
8450.791513	0.250675	0.263884	2103.097656
8450.792370	0.090450	0.263884	2180.613770
8450.793485	0.091476	0.263884	2282.609375
8450.794436	0.091556	0.263884	2369.679443
8450.795300	0.091439	0.263884	2448.682861
8450.796353	0.091055	0.263884	2544.563477
8450.797400	0.091051	0.263884	2639.893799
8450.798289	0.091344	0.263884	2721.098633
8450.799214	0.090985	0.263884	2805.259766
8450.800288	0.090740	0.263884	2902.714355
8450.801234	0.090699	0.263884	2988.516113
8451.826241	1.286671	0.218952	719.249207
8451.827289	2.341421	0.218952	3173.058350
8451.828182	2.333463	0.218952	5256.840820
8451.829109	1.583060	0.218952	6724.337891
8451.830188	0.794985	0.218952	7582.126953
8451.831139	0.747085	0.218952	8292.604492
8451.832008	0.725570	0.218952	8923.125000
8451.833073	0.283894	0.218952	9225.472656
8451.834107	0.091018	0.218952	9319.584961
8451.835004	0.091494	0.218952	9401.655273
8451.835974	0.091527	0.218952	9490.436523
8451.837028	0.091322	0.218952	9586.689453
8451.837941	0.090956	0.218952	9669.732422
8451.838804	0.091106	0.218952	9748.356445
8451.839882	0.091003	0.218952	9846.458008
8451.840865	0.090967	0.218952	9935.877930
8451.841751	0.090890	0.218952	10016.406250
8451.842754	0.090725	0.218952	10107.403320
8452.820938	0.635079	0.272001	278.799835
8452.821802	0.279624	0.272001	520.395020
8452.822823	0.289175	0.272001	815.642456
8452.823870	0.285549	0.272001	1114.612549
8452.824766	0.273962	0.272001	1360.082886
8452.825698	0.256205	0.272001	1598.865723
8452.826765	0.246632	0.272001	1862.022217
8452.827719	0.251909	0.272001	2102.343506
8452.828629	0.090736	0.272001	2184.913330
8452.829514	0.091560	0.272001	2265.944092
8452.830444	0.091619	0.272001	2351.149414
8452.831368	0.091428	0.272001	2435.629150
8452.832286	0.091410	0.272001	2519.543457
8452.833151	0.091095	0.272001	2598.340576
8452.834202	0.091091	0.272001	2694.077637
8452.835095	0.091047	0.272001	2775.382812
8452.835994	0.090879	0.272001	2857.083008
8452.836869	0.090634	0.272001	2936.387451
8453.863428	0.579247	0.216584	286.727173
8453.864357	0.281766	0.216584	548.488159
8453.865241	0.289186	0.216584	804.128418
8453.866205	0.286300	0.216584	1080.121582
8453.867231	0.273589	0.216584	1360.823730
8453.868115	0.256542	0.216584	1587.606689
8453.868978	0.246888	0.216584	1800.671387
8453.870061	0.243094	0.216584	2063.942627
8453.870985	0.090623	0.216584	2147.677979
8453.871850	0.091509	0.216584	2226.833008
8453.872808	0.091769	0.216584	2314.747559
8453.873855	0.091384	0.216584	2410.427002
8453.874752	0.091509	0.216584	2492.510498
8453.875617	0.091168	0.216584	2571.371094
8453.876678	0.090831	0.216584	2667.743164
8453.877619	0.091055	0.216584	2753.425537
8453.878494	0.090813	0.216584	2832.886963
8453.879441	0.090743	0.216584	2918.821045
