time (s)	coil I (A)	last det (V)	int current (uC)
1159.352370	1.170842	0.206953	611.179687
1159.353392	1.537456	0.206953	2182.459717
1159.354294	1.510895	0.206953	3545.286865
1159.355265	1.468008	0.206953	4970.722656
1159.356329	1.423469	0.206953	6485.293945
1159.357246	1.385717	0.206953	7755.996094
1159.358113	1.350978	0.206953	8927.293945
1159.359194	1.312324	0.206953	10345.916016
1159.360176	1.277622	0.206953	11600.541016
1159.361078	0.666665	0.206953	12201.873047
1159.362077	0.094171	0.206953	12295.950195
1159.363115	0.089810	0.206953	12389.172852
1159.364008	0.089751	0.206953	12469.320312
1159.364863	0.089850	0.206953	12546.141602
1159.365965	0.089835	0.206953	12645.139648
1159.366933	0.089758	0.206953	12732.025391
1159.367791	0.089788	0.206953	12809.063477
1159.368833	0.089857	0.206953	12902.694336
1159.369890	0.089813	0.206953	12997.626953
1159.370766	0.089824	0.206953	13076.312500
1160.417976	1.064436	0.188568	449.191986
1160.419072	1.535347	0.188568	2131.931885
1160.420076	1.507943	0.188568	3645.906738
1160.420968	1.468293	0.188568	4955.624512
1160.421847	1.431328	0.188568	6213.761719
1160.422865	1.390624	0.188568	7629.416504
1160.423768	1.354058	0.188568	8852.130859
1160.424682	1.320377	0.188568	10058.955078
1160.425564	1.288213	0.188568	11195.159180
1160.426605	0.900480	0.188568	12132.558594
1160.427501	0.107878	0.188568	12229.217773
1160.428377	0.089729	0.188568	12307.820312
1160.429338	0.089824	0.188568	12394.141602
1160.430299	0.089791	0.188568	12480.430664
1160.431216	0.089766	0.188568	12562.746094
1160.432078	0.089846	0.188568	12640.193359
1160.433104	0.089821	0.188568	12732.349609
1160.433984	0.089766	0.188568	12811.343750
1160.434841	0.089788	0.188568	12888.291992
1160.435858	0.089930	0.188568	12979.750977
1161.387574	1.047671	0.203114	440.021759
1161.388436	1.528901	0.203114	1757.934814
1161.389550	1.514030	0.203114	3444.563721
1161.390445	1.473658	0.203114	4763.488281
1161.391319	1.436711	0.203114	6019.173828
1161.392341	1.395297	0.203114	7445.166992
1161.393335	1.355841	0.203114	8792.873047
1161.394223	1.322670	0.203114	9967.403320
1161.395241	1.287261	0.203114	11277.834961
1161.396301	0.796860	0.203114	12122.506836
1161.397179	0.099320	0.203114	12209.709961
1161.398071	0.089795	0.203114	12289.806641
1161.399151	0.089861	0.203114	12386.856445
1161.400105	0.089843	0.203114	12472.566406
1161.400972	0.089813	0.203114	12550.434570
1161.401989	0.089952	0.203114	12641.916016
1161.403032	0.089843	0.203114	12735.622070
1161.403923	0.089817	0.203114	12815.648437
1161.404856	0.089908	0.203114	12899.533203
1161.405908	0.089857	0.203114	12994.062500
1162.453586	1.085753	0.190252	477.731354
1162.454454	1.530619	0.190252	1806.308594
1162.455544	1.512946	0.190252	3455.419189
1162.456535	1.468923	0.190252	4911.122070
1162.457420	1.431731	0.190252	6178.204102
1162.458432	1.390726	0.190252	7585.619141
1162.459475	1.350586	0.190252	8994.280273
1162.460375	1.316612	0.190252	10179.231445
1162.461247	1.284225	0.190252	11299.075195
1162.462362	0.696248	0.190252	12075.391602
1162.463326	0.092845	0.190252	12164.894531
1162.464186	0.089678	0.190252	12242.017578
1162.465226	0.089868	0.190252	12335.480469
1162.466282	0.089795	0.190252	12430.303711
1162.467159	0.089850	0.190252	12509.101562
1162.468097	0.089788	0.190252	12593.322266
1162.469154	0.089806	0.190252	12688.247070
1162.470095	0.089751	0.190252	12772.703125
1162.470965	0.089725	0.190252	12850.764648
1162.472007	0.089864	0.190252	12944.403320
1163.421987	1.149082	0.213592	592.926331
1163.422994	1.537024	0.213592	2140.709473
1163.423898	1.511602	0.213592	3507.197266
1163.424888	1.468623	0.213592	4961.133789
1163.425937	1.424143	0.213592	6455.060059
1163.426854	1.386401	0.213592	7726.390137
1163.427723	1.351626	0.213592	8900.953125
1163.428816	1.312467	0.213592	10335.479492
1163.429807	1.277380	0.213592	11601.363281
1163.430702	0.671730	0.213592	12202.561523
1163.431714	0.093750	0.213592	12297.436523
1163.432743	0.089835	0.213592	12389.876953
1163.433629	0.089857	0.213592	12469.490234
1163.434502	0.089769	0.213592	12547.858398
1163.435580	0.089916	0.213592	12644.788086
1163.436549	0.089769	0.213592	12731.774414
1163.437414	0.089791	0.213592	12809.444336
1163.438424	0.089835	0.213592	12900.177734
1163.439467	0.089864	0.213592	12993.906250
1163.440363	0.089802	0.213592	13074.369141
1164.491589	1.062437	0.188770	457.910156
1164.492631	1.533871	0.188770	2056.203613
1164.493504	1.515205	0.188770	3378.977539
1164.494372	1.476844	0.188770	4660.878418
1164.495443	1.431211	0.188770	6193.705078
1164.496415	1.391558	0.188770	7546.298828
1164.497294	1.357108	0.188770	8739.197266
1164.498163	1.323175	0.188770	9889.036133
1164.499279	1.285668	0.188770	11323.841797
1164.500188	0.932278	0.188770	12171.282227
1164.501054	0.114631	0.188770	12270.552734
1164.502110	0.089930	0.188770	12365.519531
1164.503089	0.089824	0.188770	12453.457031
1164.503951	0.089817	0.188770	12530.878906
1164.505019	0.089927	0.188770	12626.920898
1164.506042	0.089886	0.188770	12718.875000
1164.506927	0.089854	0.188770	12798.395508
1164.507843	0.089883	0.188770	12880.728516
1164.508895	0.089886	0.188770	12975.289062
1164.509845	0.089850	0.188770	13060.646484
1165.457216	1.057584	0.219405	447.358093
1165.458108	1.529084	0.219405	1811.301514
1165.459209	1.513096	0.219405	3477.219727
1165.460106	1.472662	0.219405	4798.197754
1165.460990	1.433401	0.219405	6065.324219
1165.462107	1.389789	0.219405	7617.718262
1165.463062	1.352417	0.219405	8909.276367
1165.463925	1.319941	0.219405	10048.385742
1165.464960	1.283701	0.219405	11377.016602
1165.466011	0.702902	0.219405	12115.766602
1165.466883	0.095251	0.219405	12198.826172
1165.467837	0.089780	0.219405	12284.476562
1165.468903	0.089773	0.219405	12380.174805
1165.469836	0.089967	0.219405	12464.114258
1165.470704	0.089813	0.219405	12542.072266
1165.471766	0.089832	0.219405	12637.473633
1165.472777	0.089755	0.219405	12728.215820
1165.473670	0.089890	0.219405	12808.487305
1165.474632	0.089828	0.219405	12894.901367
1165.475674	0.089886	0.219405	12988.563477
1166.528182	1.167444	0.198740	623.415039
1166.529216	1.536603	0.198740	2212.262207
1166.530104	1.510166	0.198740	3553.289551
1166.531038	1.468521	0.198740	4924.887695
1166.532123	1.423480	0.198740	6469.363770
1166.533048	1.385321	0.198740	7750.785645
1166.533922	1.351117	0.198740	8931.662109
1166.534966	1.312855	0.198740	10302.283203
1166.535989	1.276923	0.198740	11608.575195
1166.536883	0.661923	0.198740	12200.333984
1166.537854	0.094468	0.198740	12292.062500
1166.538899	0.089835	0.198740	12385.940430
1166.539820	0.089897	0.198740	12468.736328
1166.540684	0.089872	0.198740	12546.385742
1166.541753	0.089897	0.198740	12642.486328
1166.542742	0.089810	0.198740	12731.307617
1166.543631	0.089795	0.198740	12811.135742
1166.544600	0.089828	0.198740	12898.178711
1166.545639	0.089810	0.198740	12991.491211
1166.546541	0.089722	0.198740	13072.419922
1167.489980	1.052509	0.218285	444.158630
1167.490913	1.528821	0.218285	1870.548340
1167.491982	1.511832	0.218285	3486.697021
1167.492932	1.470011	0.218285	4883.207520
1167.493795	1.432698	0.218285	6119.625977
1167.494850	1.390031	0.218285	7586.108398
1167.495864	1.350872	0.218285	8955.892578
1167.496757	1.317524	0.218285	10132.441406
1167.497729	1.283818	0.218285	11380.312500
1167.498791	0.681720	0.218285	12104.298828
1167.499705	0.093805	0.218285	12190.036133
1167.500562	0.089821	0.218285	12267.012695
1167.501648	0.089861	0.218285	12364.601562
1167.502647	0.089802	0.218285	12454.314453
1167.503527	0.089810	0.218285	12533.346680
1167.504432	0.089868	0.218285	12614.677734
1167.505303	0.089828	0.218285	12692.917969
1167.506302	0.089890	0.218285	12782.717773
1167.507234	0.089780	0.218285	12866.392578
1167.508115	0.089857	0.218285	12945.556641
1168.567390	1.076788	0.198135	496.399414
1168.568472	1.535548	0.198135	2157.862305
1168.569432	1.508613	0.198135	3606.130859
1168.570300	1.469784	0.198135	4881.903320
1168.571340	1.426033	0.198135	6364.977539
1168.572372	1.384102	0.198135	7793.370117
1168.573271	1.349370	0.198135	9006.454102
1168.574218	1.314965	0.198135	10251.725586
1168.575277	1.277234	0.198135	11604.316406
1168.576225	0.593386	0.198135	12166.846680
1168.577087	0.093054	0.198135	12247.059570
1168.578156	0.089886	0.198135	12343.148437
1168.579159	0.089773	0.198135	12433.190430
1168.580043	0.089835	0.198135	12512.604492
1168.581032	0.089854	0.198135	12601.469727
1168.582070	0.089802	0.198135	12694.684570
1168.582982	0.089766	0.198135	12776.550781
1168.583840	0.089875	0.198135	12853.664062
1168.584930	0.089875	0.198135	12951.627930
1168.585920	0.089773	0.198135	13040.502930
1169.523645	1.064055	0.222652	453.287506
1169.524715	1.534409	0.222652	2095.105225
1169.525718	1.508068	0.222652	3607.697021
1169.526615	1.468553	0.222652	4924.989258
1169.527599	1.427633	0.222652	6329.780273
1169.528655	1.384504	0.222652	7791.816895
1169.529574	1.348608	0.222652	9031.187500
1169.530439	1.315573	0.222652	10169.158203
1169.531541	1.277915	0.222652	11577.420898
1169.532515	0.586187	0.222652	12148.366211
1169.533397	0.092611	0.222652	12230.048828
1169.534415	0.089795	0.222652	12321.459961
1169.535472	0.089766	0.222652	12416.341797
1169.536353	0.089813	0.222652	12495.466797
1169.537225	0.089810	0.222652	12573.780273
1169.538317	0.089938	0.222652	12671.992187
1169.539278	0.089810	0.222652	12758.298828
1169.540141	0.089762	0.222652	12835.763672
1169.541208	0.089912	0.222652	12931.700195
1169.542241	0.089821	0.222652	13024.484375
1170.604215	1.146233	0.204585	631.574280
1170.605261	1.536039	0.204585	2238.270752
1170.606159	1.508778	0.204585	3593.153320
1170.607026	1.468238	0.204585	4866.116211
1170.608130	1.423608	0.204585	6437.779785
1170.609090	1.384080	0.204585	7766.496094
1170.609983	1.350084	0.204585	8972.121094
1170.610978	1.313306	0.204585	10278.860352
1170.612030	1.276787	0.204585	11622.040039
1170.612934	0.630154	0.204585	12191.699219
1170.613812	0.093270	0.204585	12273.590820
1170.614687	0.089700	0.204585	12352.078125
1170.615728	0.089773	0.204585	12445.532227
1170.616620	0.089740	0.204585	12525.580078
1170.617494	0.089806	0.204585	12604.070312
1170.618508	0.089799	0.204585	12695.125977
1170.619423	0.089821	0.204585	12777.311523
1170.620344	0.089802	0.204585	12860.019531
1170.621205	0.089780	0.204585	12937.320312
1170.622218	0.089821	0.204585	13028.308594
1171.556673	1.055973	0.234350	453.012390
1171.557537	1.529495	0.234350	1774.495850
1171.558597	1.515447	0.234350	3380.869385
1171.559478	1.475702	0.234350	4680.962891
1171.560347	1.438176	0.234350	5930.738281
1171.561234	1.400310	0.234350	7172.813477
1171.562286	1.360063	0.234350	8603.600586
1171.563193	1.325973	0.234350	9806.257812
1171.564075	1.294860	0.234350	10948.324219
1171.565063	1.116046	0.234350	12050.977539
1171.565991	0.157222	0.234350	12196.878906
1171.566869	0.089608	0.234350	12275.554687
1171.567841	0.089835	0.234350	12362.874023
1171.568844	0.089755	0.234350	12452.897461
1171.569724	0.089769	0.234350	12531.894531
1171.570583	0.089788	0.234350	12609.022461
1171.571655	0.089890	0.234350	12705.384766
1171.572575	0.089762	0.234350	12787.965820
1171.573444	0.089821	0.234350	12866.019531
1171.574402	0.089934	0.234350	12952.176758
1172.641810	1.122371	0.206083	570.164246
1172.642691	1.534460	0.206083	1922.023926
1172.643563	1.516351	0.206083	3244.282227
1172.644681	1.469689	0.206083	4887.394531
1172.645640	1.428922	0.206083	6257.730957
1172.646503	1.393308	0.206083	7460.155762
1172.647524	1.353340	0.206083	8841.916016
1172.648576	1.315195	0.206083	10225.501953
1172.649461	1.283489	0.206083	11361.389648
1172.650407	0.809084	0.206083	12126.783203
1172.651467	0.094750	0.206083	12227.217773
1172.652412	0.089773	0.206083	12312.052734
1172.653280	0.089762	0.206083	12389.965820
1172.654337	0.089930	0.206083	12485.022461
1172.655359	0.089868	0.206083	12576.868164
1172.656256	0.089879	0.206083	12657.490234
1172.657219	0.089894	0.206083	12744.057617
1172.658276	0.089857	0.206083	12839.037109
1172.659199	0.089835	0.206083	12921.955078
1172.660066	0.089817	0.206083	12999.826172
1173.591071	1.141084	0.229794	583.093872
1173.592085	1.536515	0.229794	2141.120117
1173.592968	1.511865	0.229794	3476.097168
1173.593980	1.467920	0.229794	4961.632324
1173.595040	1.423539	0.229794	6470.583496
1173.595931	1.386456	0.229794	7705.916016
1173.596809	1.350989	0.229794	8892.083984
1173.597914	1.312057	0.229794	10341.907227
1173.598876	1.278289	0.229794	11571.621094
1173.599741	0.728456	0.229794	12201.735352
1173.600770	0.093468	0.229794	12297.914062
1173.601818	0.089846	0.229794	12392.073242
1173.602692	0.089846	0.229794	12470.598633
1173.603567	0.089864	0.229794	12549.230469
1173.604484	0.089846	0.229794	12631.619141
1173.605480	0.089824	0.229794	12721.083984
1173.606385	0.089784	0.229794	12802.338867
1173.607275	0.089802	0.229794	12882.262695
1173.608275	0.089802	0.229794	12972.065430
1173.609178	0.089839	0.229794	13053.189453
1174.677899	1.123905	0.213056	563.076416
1174.678842	1.535574	0.213056	2011.122437
1174.679709	1.515842	0.213056	3325.357666
1174.680744	1.470579	0.213056	4847.406250
1174.681776	1.426813	0.213056	6319.876953
1174.682676	1.390290	0.213056	7571.138672
1174.683642	1.353197	0.213056	8878.327148
1174.684705	1.313525	0.213056	10274.604492
1174.685644	1.280453	0.213056	11476.949219
1174.686515	0.805844	0.213056	12178.838867
1174.687594	0.093607	0.213056	12279.840820
1174.688596	0.089773	0.213056	12369.792969
1174.689488	0.089912	0.213056	12449.994141
1174.690460	0.089883	0.213056	12537.360352
1174.691479	0.089832	0.213056	12628.898437
1174.692385	0.089864	0.213056	12710.315430
1174.693244	0.089850	0.213056	12787.496094
1174.694326	0.089967	0.213056	12884.840820
1174.695314	0.089883	0.213056	12973.645508
1174.696197	0.089890	0.213056	13053.018555
1175.624861	1.136400	0.241609	580.700439
1175.625746	1.534731	0.241609	1938.937744
1175.626635	1.515707	0.241609	3286.401123
1175.627733	1.468671	0.241609	4899.001465
1175.628697	1.428248	0.241609	6275.833008
1175.629563	1.392638	0.241609	7481.857422
1175.630617	1.351717	0.241609	8906.567383
1175.631650	1.313632	0.241609	10263.548828
1175.632541	1.282090	0.241609	11405.890625
1175.633495	0.785424	0.241609	12155.184570
1175.634540	0.094402	0.241609	12253.834961
1175.635467	0.089755	0.241609	12337.037109
1175.636328	0.089824	0.241609	12414.375977
1175.637386	0.089901	0.241609	12509.491211
1175.638403	0.089854	0.241609	12600.872070
1175.639280	0.089927	0.241609	12679.738281
1175.640233	0.089938	0.241609	12765.449219
1175.641306	0.089861	0.241609	12861.870117
1175.642219	0.089861	0.241609	12943.913086
1175.643084	0.089890	0.241609	13021.667969
1176.715344	1.070072	0.217161	475.112000
1176.716206	1.530403	0.217161	1794.319092
1176.717261	1.513253	0.217161	3390.801270
1176.718292	1.468308	0.217161	4904.626953
1176.719184	1.430673	0.217161	6180.787109
1176.720161	1.391206	0.217161	7539.995117
1176.721221	1.350040	0.217161	8971.038086
1176.722133	1.315536	0.217161	10170.806641
1176.723060	1.283350	0.217161	11360.471680
1176.723932	0.900026	0.217161	12145.293945
1176.724981	0.096881	0.217161	12246.921875
1176.725874	0.089810	0.217161	12327.122070
1176.726749	0.089832	0.217161	12405.724609
1176.727732	0.089861	0.217161	12494.057617
1176.728682	0.089810	0.217161	12579.376953
1176.729607	0.089868	0.217161	12662.504883
1176.730466	0.089813	0.217161	12739.654297
1176.731495	0.089788	0.217161	12832.045898
1176.732368	0.089799	0.217161	12910.440430
1176.733244	0.089828	0.217161	12989.129883
1177.659062	1.051904	0.244010	443.903625
1177.660029	1.528964	0.244010	1922.411377
1177.661096	1.509888	0.244010	3533.461426
1177.662025	1.469048	0.244010	4898.207031
1177.662889	1.431160	0.244010	6134.729004
1177.663968	1.388394	0.244010	7632.805664
1177.664959	1.349579	0.244010	8970.238281
1177.665852	1.316744	0.244010	10146.090820
1177.666846	1.282295	0.244010	11420.691406
1177.667913	0.636943	0.244010	12100.309570
1177.668799	0.093201	0.244010	12182.885742
1177.669722	0.089773	0.244010	12265.746094
1177.670583	0.089850	0.244010	12343.106445
1177.671635	0.089854	0.244010	12437.632812
1177.672512	0.089773	0.244010	12516.363281
1177.673390	0.089769	0.244010	12595.180664
1177.674364	0.089886	0.244010	12682.730469
1177.675290	0.089810	0.244010	12765.894531
1177.676221	0.089890	0.244010	12849.582031
1177.677090	0.089868	0.244010	12927.677734
1178.750157	1.188105	0.226479	676.031982
1178.751214	1.535691	0.226479	2299.257324
1178.752102	1.507233	0.226479	3637.679932
1178.752990	1.466920	0.226479	4940.305176
1178.754077	1.422195	0.226479	6486.230957
1178.755044	1.383373	0.226479	7823.952148
1178.755910	1.349601	0.226479	8992.706055
1178.756952	1.311753	0.226479	10359.552734
1178.757996	1.275187	0.226479	11690.847656
1178.758878	0.597521	0.226479	12217.861328
1178.759818	0.093087	0.226479	12305.363281
1178.760881	0.089806	0.226479	12400.827148
1178.761821	0.089766	0.226479	12485.207031
1178.762682	0.089843	0.226479	12562.561523
1178.763704	0.089890	0.226479	12654.429687
1178.764733	0.089773	0.226479	12746.805664
1178.765626	0.089817	0.226479	12827.011719
1178.766585	0.089824	0.226479	12913.153320
1178.767622	0.089821	0.226479	13006.296875
1178.768558	0.089802	0.226479	13090.351562
1179.694091	1.123403	0.243728	565.071838
1179.695043	1.535105	0.243728	2026.491699
1179.695907	1.514971	0.243728	3335.426270
1179.696966	1.468498	0.243728	4890.566406
1179.697996	1.425106	0.243728	6358.425781
1179.698887	1.389031	0.243728	7596.052246
1179.699858	1.351619	0.243728	8908.473633
1179.700927	1.311885	0.243728	10310.878906
1179.701853	1.279358	0.243728	11495.564453
1179.702731	0.767882	0.243728	12169.764648
1179.703817	0.092725	0.243728	12270.463867
1179.704811	0.089802	0.243728	12359.727539
1179.705703	0.089736	0.243728	12439.772461
1179.706688	0.089897	0.243728	12528.321289
1179.707731	0.089758	0.243728	12621.939453
1179.708628	0.089854	0.243728	12702.538086
1179.709486	0.089843	0.243728	12779.623047
1179.710576	0.089883	0.243728	12877.595703
1179.711549	0.089791	0.243728	12964.962891
1179.712408	0.089828	0.243728	13042.125000
1180.785724	1.054244	0.224392	445.945374
1180.786775	1.533585	0.224392	2057.743408
1180.787807	1.507855	0.224392	3613.850098
1180.788697	1.468195	0.224392	4920.543457
1180.789585	1.430823	0.224392	6191.114258
1180.790551	1.391953	0.224392	7535.741211
1180.791533	1.353505	0.224392	8864.882812
1180.792467	1.318890	0.224392	10096.726562
1180.793332	1.287323	0.224392	11210.260742
1180.794369	0.884993	0.224392	12127.998047
1180.795252	0.106761	0.224392	12222.268555
1180.796127	0.089758	0.224392	12300.806641
1180.797021	0.089824	0.224392	12381.109375
1180.798057	0.089758	0.224392	12474.098633
1180.798952	0.089846	0.224392	12554.510742
1180.799814	0.089894	0.224392	12631.999023
1180.800920	0.089912	0.224392	12731.441406
1180.801822	0.089780	0.224392	12812.422852
1180.802701	0.089886	0.224392	12891.432617
1180.803700	0.089916	0.224392	12981.258789
1181.730586	1.134452	0.258133	579.704895
1181.731526	1.535226	0.258133	2022.817139
1181.732388	1.514740	0.258133	3328.522949
1181.733445	1.468854	0.258133	4881.101562
1181.734458	1.425839	0.258133	6325.476074
1181.735350	1.389620	0.258133	7565.017578
1181.736320	1.352494	0.258133	8876.936523
1181.737374	1.313452	0.258133	10261.315430
1181.738293	1.280907	0.258133	11438.468750
1181.739169	0.817196	0.258133	12154.332031
1181.740267	0.093695	0.258133	12257.208984
1181.741268	0.089755	0.258133	12347.053711
1181.742159	0.089905	0.258133	12427.159180
1181.743042	0.089919	0.258133	12506.557617
1181.744033	0.089894	0.258133	12595.642578
1181.744960	0.089952	0.258133	12679.028320
1181.745877	0.089901	0.258133	12761.467773
1181.746741	0.089908	0.258133	12839.148437
1181.747768	0.089872	0.258133	12931.447266
1181.748651	0.089872	0.258133	13010.803711
1182.820991	1.130625	0.231619	548.353149
1182.821879	1.533164	0.231619	1909.802856
1182.822860	1.514022	0.231619	3395.058594
1182.823920	1.467330	0.231619	4950.428711
1182.824853	1.427824	0.231619	6282.587891
1182.825712	1.391536	0.231619	7477.916992
1182.826800	1.350553	0.231619	8947.318359
1182.827815	1.312936	0.231619	10279.948242
1182.828693	1.281782	0.231619	11405.353516
1182.829683	0.724178	0.231619	12122.290039
1182.830756	0.092289	0.231619	12221.316406
1182.831658	0.089758	0.231619	12302.278320
1182.832526	0.089857	0.231619	12380.274414
1182.833639	0.089938	0.231619	12480.375000
1182.834609	0.089802	0.231619	12567.483398
1182.835478	0.089850	0.231619	12645.562500
1182.836496	0.089927	0.231619	12737.108398
1182.837536	0.089780	0.231619	12830.479492
1182.838425	0.089824	0.231619	12910.333008
1182.839333	0.089850	0.231619	12991.916992
1183.764103	1.122817	0.252876	558.040222
1183.764983	1.533131	0.252876	1907.195557
1183.765896	1.515271	0.252876	3290.638184
1183.766992	1.468444	0.252876	4900.052246
1183.767929	1.428563	0.252876	6238.616211
1183.768796	1.392993	0.252876	7446.341309
1183.769843	1.352216	0.252876	8862.111328
1183.770871	1.314353	0.252876	10213.266602
1183.771770	1.282617	0.252876	11366.339844
1183.772735	0.791210	0.252876	12129.857422
1183.773792	0.094054	0.252876	12229.272461
1183.774724	0.089733	0.252876	12312.903320
1183.775586	0.089799	0.252876	12390.309570
1183.776650	0.089989	0.252876	12486.057617
1183.777648	0.089821	0.252876	12575.698242
1183.778540	0.089747	0.252876	12655.752930
1183.779513	0.089846	0.252876	12743.172852
1183.780564	0.089824	0.252876	12837.578125
1183.781482	0.089828	0.252876	12920.040039
1183.782342	0.089788	0.252876	12997.257812
1184.855371	1.065542	0.237557	463.510773
1184.856231	1.529297	0.237557	1778.706055
1184.857290	1.515029	0.237557	3383.122070
1184.858165	1.475035	0.237557	4673.778320
1184.859042	1.437649	0.237557	5934.596680
1184.859926	1.399999	0.237557	7172.195312
1184.860974	1.359814	0.237557	8597.281250
1184.861876	1.325995	0.237557	9793.328125
1184.862758	1.294991	0.237557	10935.510742
1184.863766	1.111392	0.237557	12055.792969
1184.864695	0.153702	0.237557	12198.582031
1184.865620	0.089641	0.237557	12281.500000
1184.866478	0.089744	0.237557	12358.500000
1184.867524	0.089861	0.237557	12452.494141
1184.868410	0.089879	0.237557	12532.126953
1184.869266	0.089846	0.237557	12609.035156
1184.870305	0.089864	0.237557	12702.404297
1184.871235	0.089908	0.237557	12786.019531
1184.872108	0.089864	0.237557	12864.471680
1184.873060	0.089857	0.237557	12950.015625
1185.801665	1.060302	0.265940	455.929657
1185.802665	1.529312	0.265940	1985.241211
1185.803712	1.508976	0.265940	3565.138672
1185.804625	1.468326	0.265940	4905.720703
1185.805490	1.430050	0.265940	6142.713867
1185.806592	1.386863	0.265940	7671.036621
1185.807565	1.349011	0.265940	8983.625000
1185.808443	1.316327	0.265940	10139.360352
1185.809457	1.281372	0.265940	11438.671875
1185.810515	0.639467	0.265940	12115.227539
1185.811382	0.093387	0.265940	12196.194336
1185.812257	0.089839	0.265940	12274.803711
1185.813134	0.089817	0.265940	12353.573242
1185.814186	0.089744	0.265940	12447.983398
1185.815079	0.089832	0.265940	12528.203125
1185.815958	0.089722	0.265940	12607.068359
1185.816944	0.089854	0.265940	12695.664062
1185.817880	0.089875	0.265940	12779.787109
1185.818802	0.089813	0.265940	12862.594727
1185.819662	0.089843	0.265940	12939.859375
1186.890249	1.120360	0.235687	560.180054
1186.891158	1.534358	0.235687	1954.911377
1186.892022	1.515890	0.235687	3264.640137
1186.893102	1.469685	0.235687	4851.899902
1186.894095	1.427520	0.235687	6269.426758
1186.894989	1.391349	0.235687	7513.292480
1186.895998	1.352758	0.235687	8878.224609
1186.897056	1.314115	0.235687	10268.558594
1186.897948	1.281826	0.235687	11411.947266
1186.898843	0.808663	0.235687	12135.701172
1186.899925	0.094698	0.235687	12238.165039
1186.900880	0.089839	0.235687	12323.960937
1186.901738	0.089835	0.235687	12401.039062
1186.902733	0.089908	0.235687	12490.498047
1186.903813	0.089930	0.235687	12587.623047
1186.904688	0.089828	0.235687	12666.222656
1186.905620	0.089938	0.235687	12750.044922
1186.906702	0.089912	0.235687	12847.330078
1186.907636	0.089897	0.235687	12931.293945
1186.908503	0.089919	0.235687	13009.253906
1187.837283	1.107843	0.269110	506.284271
1187.838169	1.531384	0.269110	1863.090820
1187.839166	1.514403	0.269110	3372.950684
1187.840221	1.468261	0.269110	4921.965820
1187.841119	1.429523	0.269110	6205.677246
1187.841981	1.392565	0.269110	7406.067871
1187.843089	1.351549	0.269110	8903.583984
1187.844062	1.315649	0.269110	10183.710937
1187.844922	1.284873	0.269110	11288.702148
1187.846018	0.721988	0.269110	12080.001953
1187.847054	0.092651	0.269110	12175.988281
1187.847929	0.089725	0.269110	12254.498047
1187.848849	0.089864	0.269110	12337.173828
1187.849920	0.089854	0.269110	12433.407227
1187.850867	0.089689	0.269110	12518.342773
1187.851734	0.089758	0.269110	12596.163086
1187.852773	0.089846	0.269110	12689.513672
1187.853805	0.089850	0.269110	12782.238281
1187.854695	0.089868	0.269110	12862.220703
1187.855635	0.089784	0.269110	12946.617187
1188.925510	1.063231	0.245166	456.126190
1188.926510	1.528868	0.245166	1984.994507
1188.927473	1.511935	0.245166	3440.987793
1188.928403	1.471388	0.245166	4809.378418
1188.929271	1.433756	0.245166	6053.878906
1188.930305	1.392429	0.245166	7493.650879
1188.931188	1.356976	0.245166	8691.861328
1188.932070	1.324182	0.245166	9859.790039
1188.933014	1.290813	0.245166	11078.317383
1188.933980	1.060843	0.245166	12103.091797
1188.934925	0.129492	0.245166	12225.461914
1188.935801	0.089692	0.245166	12304.032227
1188.936864	0.089806	0.245166	12399.496094
1188.937758	0.089791	0.245166	12479.769531
1188.938619	0.089784	0.245166	12557.073242
1188.939665	0.089952	0.245166	12651.163086
1188.940648	0.089784	0.245166	12739.420898
1188.941525	0.089864	0.245166	12818.232422
1188.942387	0.089821	0.245166	12895.658203
1188.943490	0.089843	0.245166	12994.754883
1189.873054	1.122283	0.269239	590.320740
1189.874021	1.535218	0.269239	2074.876953
1189.874941	1.511393	0.269239	3465.358398
1189.875810	1.472391	0.269239	4744.866211
1189.876863	1.428739	0.269239	6249.328613
1189.877741	1.392312	0.269239	7471.778320
1189.878619	1.357895	0.269239	8664.010742
1189.879565	1.322692	0.269239	9915.277344
1189.880575	1.287400	0.269239	11215.550781
1189.881449	1.035689	0.269239	12120.742187
1189.882324	0.137805	0.269239	12241.321289
1189.883439	0.089791	0.269239	12341.438477
1189.884333	0.089817	0.269239	12421.734375
1189.885201	0.089875	0.269239	12499.746094
1189.886207	0.089810	0.269239	12590.094727
1189.887196	0.089832	0.269239	12678.938477
1189.888076	0.089941	0.269239	12758.086914
1189.888937	0.089857	0.269239	12835.454102
1189.890044	0.089901	0.269239	12934.974609
1189.890952	0.089923	0.269239	13016.625000
1190.959750	1.118529	0.243655	559.264526
1190.960667	1.533981	0.243655	1965.924805
1190.961537	1.515443	0.243655	3284.360352
1190.962602	1.469341	0.243655	4849.208496
1190.963608	1.426765	0.243655	6284.534180
1190.964504	1.390441	0.243655	7530.369141
1190.965489	1.352509	0.243655	8862.589844
1190.966547	1.313353	0.243655	10252.117187
1190.967460	1.281075	0.243655	11421.739258
1190.968333	0.817837	0.243655	12135.710937
1190.969441	0.093801	0.243655	12239.642578
1190.970413	0.089762	0.243655	12326.891602
1190.971282	0.089919	0.243655	12405.031250
1190.972381	0.090018	0.243655	12503.960937
1190.973413	0.089886	0.243655	12596.723633
1190.974308	0.089941	0.243655	12677.220703
1190.975239	0.089843	0.243655	12760.864258
1190.976290	0.089916	0.243655	12855.366211
1190.977240	0.089828	0.243655	12940.703125
1190.978100	0.089828	0.243655	13017.955078
1191.909406	1.140820	0.279588	579.536743
1191.910368	1.535200	0.279588	2056.399414
1191.911233	1.513898	0.279588	3365.920898
1191.912281	1.468363	0.279588	4904.765625
1191.913318	1.424612	0.279588	6382.087891
1191.914205	1.388042	0.279588	7613.281250
1191.915134	1.352010	0.279588	8869.298828
1191.916192	1.313090	0.279588	10258.547852
1191.917133	1.279999	0.279588	11463.026367
1191.918004	0.827516	0.279588	12183.792969
1191.919049	0.095955	0.279588	12284.065430
1191.920073	0.089773	0.279588	12375.993164
1191.920946	0.089780	0.279588	12454.371094
1191.921892	0.089905	0.279588	12539.420898
1191.922941	0.089897	0.279588	12633.723633
1191.923870	0.089747	0.279588	12717.098633
1191.924736	0.089861	0.279588	12794.917969
1191.925791	0.089956	0.279588	12889.821289
1191.926792	0.089780	0.279588	12979.691406
1191.927684	0.089806	0.279588	13059.797852
1192.993612	1.064487	0.248413	465.180908
1192.994490	1.530018	0.248413	1808.536987
1192.995406	1.517966	0.248413	3198.994141
1192.996480	1.472457	0.248413	4780.413086
1192.997372	1.433741	0.248413	6059.310547
1192.998263	1.395879	0.248413	7303.038574
1192.999359	1.354435	0.248413	8787.499023
1193.000309	1.319301	0.248413	10040.833984
1193.001172	1.288209	0.248413	11152.558594
1193.002190	0.897286	0.248413	12065.996094
1193.003241	0.100642	0.248413	12171.770508
1193.004120	0.089747	0.248413	12250.658203
1193.005059	0.089993	0.248413	12335.161133
1193.006122	0.089857	0.248413	12430.679687
1193.007066	0.089868	0.248413	12515.515625
1193.007932	0.089850	0.248413	12593.325195
1193.008980	0.089912	0.248413	12687.552734
1193.009989	0.089802	0.248413	12778.163086
1193.010882	0.089828	0.248413	12858.378906
1193.011848	0.089883	0.248413	12945.206055
1193.945531	1.162734	0.274367	629.039307
1193.946560	1.535189	0.274367	2208.749023
1193.947433	1.509100	0.274367	3526.193604
1193.948389	1.467100	0.274367	4928.740723
1193.949453	1.422052	0.274367	6441.803711
1193.950385	1.384471	0.274367	7732.130859
1193.951259	1.349736	0.274367	8911.800781
1193.952338	1.310962	0.274367	10326.328125
1193.953338	1.275622	0.274367	11601.950195
1193.954233	0.650768	0.274367	12184.387695
1193.955219	0.093567	0.274367	12276.644531
1193.956273	0.089802	0.274367	12371.295898
1193.957176	0.089751	0.274367	12452.340820
1193.958036	0.089846	0.274367	12529.608398
1193.959133	0.089802	0.274367	12628.121094
1193.960086	0.089780	0.274367	12713.681641
1193.960966	0.089780	0.274367	12792.688477
1193.961966	0.089854	0.274367	12882.541992
1193.963009	0.089751	0.274367	12976.152344
1193.963894	0.089806	0.274367	13055.630859
1195.029140	1.099296	0.252788	560.640747
1195.030112	1.534772	0.252788	2052.438965
1195.031038	1.511517	0.252788	3452.104004
1195.031912	1.472538	0.252788	4739.102051
1195.032939	1.429984	0.252788	6207.695801
1195.033820	1.393088	0.252788	7435.006836
1195.034690	1.358921	0.252788	8617.267578
1195.035583	1.324409	0.252788	9799.964844
1195.036625	1.288198	0.252788	11142.267578
1195.037518	1.066047	0.252788	12094.248047
1195.038401	0.146462	0.252788	12223.574219
1195.039393	0.089740	0.252788	12312.596680
1195.040321	0.089766	0.252788	12395.899414
1195.041200	0.089817	0.252788	12474.848633
1195.042189	0.089835	0.252788	12563.695312
1195.043183	0.089762	0.252788	12652.918945
1195.044067	0.089824	0.252788	12732.323242
1195.044924	0.089861	0.252788	12809.333984
1195.046000	0.089773	0.252788	12905.929687
1195.046910	0.089747	0.252788	12987.599609
1195.979990	1.068992	0.284684	477.839264
1195.980863	1.529773	0.284684	1813.330933
1195.981732	1.519746	0.284684	3133.990234
1195.982754	1.475936	0.284684	4642.396973
1195.983665	1.436228	0.284684	5950.800781
1195.984550	1.400057	0.284684	7189.851562
1195.985553	1.360964	0.284684	8554.898437
1195.986554	1.323241	0.284684	9879.462891
1195.987448	1.291296	0.284684	11033.881836
1195.988315	1.099863	0.284684	11987.462891
1195.989413	0.133261	0.284684	12133.783203
1195.990306	0.089685	0.284684	12213.872070
1195.991180	0.089788	0.284684	12292.346680
1195.992194	0.089912	0.284684	12383.517578
1195.993193	0.089744	0.284684	12473.171875
1195.994091	0.089788	0.284684	12553.800781
1195.994949	0.089843	0.284684	12630.885742
1195.996040	0.089846	0.284684	12728.908203
1195.996951	0.089868	0.284684	12810.778320
1195.997820	0.089919	0.284684	12888.917969
1197.063244	1.063392	0.253190	465.765869
1197.064109	1.529099	0.253190	1788.436646
1197.065156	1.513564	0.253190	3373.138672
1197.066190	1.468477	0.253190	4891.543457
1197.067067	1.430460	0.253190	6146.057129
1197.068034	1.391334	0.253190	7491.477539
1197.069096	1.350114	0.253190	8925.297852
1197.070029	1.315466	0.253190	10152.627930
1197.070906	1.283965	0.253190	11278.665039
1197.071984	0.736187	0.253190	12072.274414
1197.072981	0.092834	0.253190	12164.830078
1197.073874	0.089828	0.253190	12245.045898
1197.074837	0.089890	0.253190	12331.610352
1197.075884	0.089897	0.253190	12425.733398
1197.076800	0.089824	0.253190	12508.012695
1197.077664	0.089788	0.253190	12585.588867
1197.078743	0.089824	0.253190	12682.508789
1197.079735	0.089744	0.253190	12771.534180
1197.080631	0.089828	0.253190	12852.019531
1197.081648	0.089835	0.253190	12943.381836
1198.016595	1.067432	0.287407	473.939606
1198.017456	1.529110	0.287407	1790.503296
1198.018514	1.513077	0.287407	3391.339111
1198.019528	1.468557	0.287407	4880.456055
1198.020411	1.430497	0.287407	6143.584961
1198.021386	1.391045	0.287407	7499.853516
1198.022442	1.350048	0.287407	8925.503906
1198.023354	1.316096	0.287407	10125.783203
1198.024229	1.284254	0.287407	11249.505859
1198.025340	0.720590	0.287407	12050.081055
1198.026345	0.092300	0.287407	12142.842773
1198.027240	0.089766	0.287407	12223.182617
1198.028232	0.089916	0.287407	12312.378906
1198.029276	0.089930	0.287407	12406.266602
1198.030167	0.089897	0.287407	12486.365234
1198.031051	0.089872	0.287407	12565.811523
1198.032153	0.089945	0.287407	12664.930664
1198.033117	0.089824	0.287407	12751.521484
1198.033980	0.089817	0.287407	12829.033203
1198.035011	0.089912	0.287407	12921.732422
1199.096147	1.086592	0.261646	485.706543
1199.097046	1.530938	0.261646	1862.019409
1199.097926	1.517150	0.261646	3197.111084
1199.099028	1.470956	0.261646	4818.104492
1199.099937	1.431877	0.261646	6119.681152
1199.100810	1.396110	0.261646	7338.484863
1199.101816	1.357676	0.261646	8704.306641
1199.102816	1.319773	0.261646	10024.080078
1199.103706	1.288246	0.261646	11170.619141
1199.104568	1.060785	0.261646	12085.015625
1199.105624	0.120897	0.261646	12212.682617
1199.106552	0.089850	0.261646	12296.063477
1199.107416	0.089923	0.261646	12373.756836
1199.108498	0.089923	0.261646	12471.053711
1199.109490	0.089813	0.261646	12560.148437
1199.110382	0.089839	0.261646	12640.285156
1199.111362	0.089923	0.261646	12728.410156
1199.112413	0.089956	0.261646	12822.954102
1199.113317	0.089824	0.261646	12904.155273
1199.114182	0.089912	0.261646	12981.929687
1200.054419	1.102207	0.291073	562.125610
1200.055478	1.534347	0.291073	2186.999023
1200.056423	1.506196	0.291073	3610.354492
1200.057290	1.467180	0.291073	4882.399414
1200.058365	1.422733	0.291073	6411.837891
1200.059364	1.382091	0.291073	7792.546875
1200.060259	1.347675	0.291073	8998.715820
1200.061255	1.311526	0.291073	10304.995117
1200.062311	1.274506	0.291073	11650.873047
1200.063220	0.571029	0.291073	12169.938477
1200.064079	0.092615	0.291073	12249.494141
1200.065174	0.089927	0.291073	12347.963867
1200.066134	0.089703	0.291073	12434.079102
1200.067011	0.089810	0.291073	12512.841797
1200.068021	0.089886	0.291073	12603.626953
1200.069083	0.089839	0.291073	12699.036133
1200.069956	0.089755	0.291073	12777.391602
1200.070825	0.089817	0.291073	12855.442383
1200.071933	0.089879	0.291073	12955.028320
1200.072897	0.089788	0.291073	13041.583984
1201.131655	1.121649	0.264494	558.581299
1201.132637	1.535017	0.264494	2065.968018
1201.133536	1.511957	0.264494	3425.217285
1201.134539	1.468206	0.264494	4897.827637
1201.135585	1.424356	0.264494	6387.703613
1201.136491	1.386859	0.264494	7644.197754
1201.137356	1.351707	0.264494	8813.423828
1201.138463	1.312606	0.264494	10266.478516
1201.139429	1.278801	0.264494	11501.800781
1201.140299	0.790459	0.264494	12189.500000
1201.141356	0.094962	0.264494	12289.875000
1201.142395	0.089802	0.264494	12383.179687
1201.143280	0.089762	0.264494	12462.619141
1201.144147	0.089832	0.264494	12540.502930
1201.145056	0.089846	0.264494	12622.172852
1201.146059	0.089806	0.264494	12712.248047
1201.146982	0.089799	0.264494	12795.131836
1201.147863	0.089879	0.264494	12874.315430
1201.148966	0.089886	0.264494	12973.459961
1201.149865	0.089791	0.264494	13054.182617
1202.089176	1.096289	0.299089	490.041199
1202.090065	1.531168	0.299089	1851.249756
1202.091048	1.514180	0.299089	3339.688477
1202.092112	1.467817	0.299089	4901.446289
1202.093026	1.428208	0.299089	6206.828125
1202.093949	1.391096	0.299089	7490.810059
1202.094816	1.355830	0.299089	8666.314453
1202.095867	1.318293	0.299089	10051.840820
1202.096751	1.286939	0.299089	11189.494141
1202.097625	1.069790	0.299089	12124.490234
1202.098634	0.136033	0.299089	12261.747070
1202.099558	0.089766	0.299089	12344.690430
1202.100468	0.089897	0.299089	12426.497070
1202.101351	0.089868	0.299089	12505.850586
1202.102377	0.089846	0.299089	12598.033203
1202.103269	0.089883	0.299089	12678.208984
1202.104147	0.089908	0.299089	12757.148437
1202.105116	0.089879	0.299089	12844.241211
1202.106081	0.089843	0.299089	12930.939453
1202.106961	0.089879	0.299089	13010.033203
1203.164833	1.144980	0.262182	587.374939
1203.165836	1.535090	0.262182	2127.070557
1203.166719	1.510668	0.262182	3460.990234
1203.167721	1.467261	0.262182	4931.185547
1203.168774	1.423403	0.262182	6430.029297
1203.169663	1.386365	0.262182	7662.507812
1203.170557	1.350399	0.262182	8869.764648
1203.171654	1.311566	0.262182	10308.552734
1203.172612	1.277747	0.262182	11532.633789
1203.173479	0.758203	0.262182	12189.996094
1203.174500	0.093849	0.262182	12285.815430
1203.175542	0.089747	0.262182	12379.332031
1203.176432	0.089769	0.262182	12459.226562
1203.177364	0.089780	0.262182	12542.901367
1203.178429	0.089810	0.262182	12638.548828
1203.179373	0.089810	0.262182	12723.329102
1203.180240	0.089806	0.262182	12801.190430
1203.181285	0.089886	0.262182	12895.122070
1203.182299	0.089784	0.262182	12986.163086
1203.183191	0.089777	0.262182	13066.244141
1204.126904	1.058697	0.294875	445.711639
1204.127994	1.532834	0.294875	2116.501221
1204.128999	1.506028	0.294875	3630.059082
1204.129881	1.467195	0.294875	4924.125000
1204.130873	1.426113	0.294875	6338.829102
1204.131925	1.383340	0.294875	7794.102539
1204.132819	1.347832	0.294875	8999.064453
1204.133694	1.314346	0.294875	10149.117187
1204.134801	1.276772	0.294875	11562.503906
1204.135784	0.590625	0.294875	12143.087891
1204.136649	0.092600	0.294875	12223.186523
1204.137694	0.089828	0.294875	12317.056641
1204.138740	0.089846	0.294875	12411.036133
1204.139630	0.089894	0.294875	12491.041992
1204.140560	0.089857	0.294875	12574.609375
1204.141636	0.089883	0.294875	12671.323242
1204.142581	0.089777	0.294875	12756.162109
1204.143449	0.089747	0.294875	12834.062500
1204.144504	0.089883	0.294875	12928.888672
1204.145516	0.089861	0.294875	13019.828125
1205.199441	1.072943	0.269642	466.730255
1205.200315	1.529169	0.269642	1803.223633
1205.201337	1.514062	0.269642	3350.595459
1205.202328	1.470531	0.269642	4807.891602
1205.203244	1.431669	0.269642	6119.299805
1205.204110	1.394535	0.269642	7326.966797
1205.205218	1.354028	0.269642	8827.230469
1205.206096	1.320352	0.269642	9986.499023
1205.206956	1.289659	0.269642	11095.606445
1205.207993	0.914557	0.269642	12044.001953
1205.208979	0.103865	0.269642	12146.412109
1205.209854	0.089744	0.269642	12224.937500
1205.210710	0.089839	0.269642	12301.839844
1205.211823	0.089806	0.269642	12401.793945
1205.212726	0.089835	0.269642	12482.915039
1205.213586	0.089817	0.269642	12560.157227
1205.214680	0.089875	0.269642	12658.481445
1205.215652	0.089810	0.269642	12745.776367
1205.216515	0.089799	0.269642	12823.272461
1205.217608	0.089857	0.269642	12921.486328
1206.162869	1.048275	0.306985	441.323822
1206.163835	1.527488	0.306985	1916.877075
1206.164894	1.509108	0.306985	3515.021973
1206.165821	1.468096	0.306985	4875.946777
1206.166684	1.430702	0.306985	6110.642578
1206.167771	1.387449	0.306985	7618.799316
1206.168775	1.348301	0.306985	8972.493164
1206.169665	1.315539	0.306985	10143.323242
1206.170667	1.280856	0.306985	11426.740234
1206.171721	0.653932	0.306985	12115.984375
1206.172620	0.093417	0.306985	12199.965820
1206.173477	0.089681	0.306985	12276.823242
1206.174582	0.089846	0.306985	12376.103516
1206.175548	0.089700	0.306985	12462.753906
1206.176418	0.089740	0.306985	12540.828125
1206.177409	0.089894	0.306985	12629.913086
1206.178454	0.089744	0.306985	12723.695312
1206.179339	0.089817	0.306985	12803.183594
1206.180210	0.089788	0.306985	12881.388672
1206.181327	0.089850	0.306985	12981.750977
1207.233820	1.117529	0.271241	579.997681
1207.234868	1.534058	0.271241	2187.689941
1207.235781	1.507332	0.271241	3563.883789
1207.236643	1.468037	0.271241	4829.332031
1207.237727	1.423733	0.271241	6372.658203
1207.238716	1.383333	0.271241	7740.774414
1207.239601	1.349509	0.271241	8935.089844
1207.240608	1.312936	0.271241	10257.215820
1207.241650	1.276340	0.271241	11587.162109
1207.242559	0.648849	0.271241	12176.965820
1207.243416	0.094215	0.271241	12257.708008
1207.244511	0.089967	0.271241	12356.221680
1207.245483	0.089729	0.271241	12443.438477
1207.246352	0.089861	0.271241	12521.527344
1207.247383	0.089923	0.271241	12614.238281
1207.248432	0.089828	0.271241	12708.467773
1207.249319	0.089780	0.271241	12788.102539
1207.250232	0.089821	0.271241	12870.108398
1207.251311	0.089872	0.271241	12967.080078
1207.252256	0.089872	0.271241	13052.008789
1208.198389	1.111395	0.304765	533.469727
1208.199279	1.531754	0.304765	1896.730957
1208.200161	1.516937	0.304765	3234.669678
1208.201110	1.475618	0.304765	4635.030762
1208.202098	1.433617	0.304765	6051.444336
1208.203020	1.395894	0.304765	7338.458008
1208.203892	1.361356	0.304765	8525.560547
1208.204934	1.323453	0.304765	9904.598633
1208.205819	1.291249	0.304765	11047.353516
1208.206682	1.180452	0.304765	12066.083008
1208.207723	0.156123	0.304765	12228.607422
1208.208697	0.089593	0.304765	12315.871094
1208.209573	0.089799	0.304765	12394.534180
1208.210430	0.089821	0.304765	12471.510742
1208.211537	0.089810	0.304765	12570.929687
1208.212451	0.089813	0.304765	12653.018555
1208.213312	0.089762	0.304765	12730.303711
1208.214439	0.089982	0.304765	12831.712891
1208.215406	0.089821	0.304765	12918.569336
1208.216284	0.089788	0.304765	12997.403320
1209.267719	1.121012	0.274343	562.747986
1209.268669	1.534003	0.274343	2020.050537
1209.269536	1.514114	0.274343	3332.787109
1209.270561	1.469026	0.274343	4838.538574
1209.271603	1.425465	0.274343	6323.873047
1209.272505	1.388511	0.274343	7576.309570
1209.273449	1.352164	0.274343	8852.752930
1209.274518	1.312610	0.274343	10255.932617
1209.275464	1.279417	0.274343	11466.260742
1209.276334	0.811556	0.274343	12172.314453
1209.277384	0.094944	0.274343	12272.005859
1209.278380	0.089828	0.274343	12361.474609
1209.279268	0.089813	0.274343	12441.228516
1209.280232	0.089971	0.274343	12527.959961
1209.281283	0.089912	0.274343	12622.458008
1209.282196	0.089916	0.274343	12704.550781
1209.283053	0.089857	0.274343	12781.558594
1209.284120	0.089967	0.274343	12877.553711
1209.285127	0.089821	0.274343	12968.002930
1209.286000	0.089817	0.274343	13046.413086
1210.234124	1.123487	0.312076	561.743713
1210.235119	1.534592	0.312076	2088.663086
1210.236017	1.510844	0.312076	3445.400391
1210.237011	1.467433	0.312076	4904.028809
1210.238068	1.423081	0.312076	6408.225586
1210.238968	1.386094	0.312076	7655.709961
1210.239860	1.350597	0.312076	8860.442383
1210.240959	1.311068	0.312076	10301.306641
1210.241929	1.277113	0.312076	11540.106445
1210.242801	0.740658	0.312076	12185.959961
1210.243837	0.093446	0.312076	12282.770508
1210.244863	0.089762	0.312076	12374.866211
1210.245747	0.089791	0.312076	12454.241211
1210.246681	0.090000	0.312076	12538.300781
1210.247728	0.090007	0.312076	12632.538086
1210.248663	0.089832	0.312076	12716.530273
1210.249526	0.089835	0.312076	12794.057617
1210.250579	0.089872	0.312076	12888.692383
1210.251600	0.089773	0.312076	12980.350586
1210.252472	0.089821	0.312076	13058.673828
1211.302841	1.059518	0.280144	447.116547
1211.303921	1.532911	0.280144	2102.660889
1211.304910	1.506694	0.280144	3592.781738
1211.305805	1.467510	0.280144	4906.203125
1211.306806	1.425901	0.280144	6333.529785
1211.307853	1.383325	0.280144	7781.871094
1211.308754	1.348074	0.280144	8996.485352
1211.309619	1.314957	0.280144	10133.923828
1211.310697	1.278391	0.280144	11512.029297
1211.311694	0.617424	0.280144	12127.601562
1211.312572	0.093146	0.280144	12209.383789
1211.313576	0.089791	0.280144	12299.534180
1211.314622	0.089864	0.280144	12393.532227
1211.315490	0.089795	0.280144	12471.474609
1211.316364	0.089843	0.280144	12549.997070
1211.317231	0.089864	0.280144	12627.909180
1211.318290	0.089747	0.280144	12722.951172
1211.319184	0.089821	0.280144	12803.250977
1211.320057	0.089919	0.280144	12881.750977
1211.321049	0.089930	0.280144	12970.961914
1212.270137	1.054416	0.313345	443.909302
1212.271192	1.532714	0.313345	2060.922363
1212.272095	1.511785	0.313345	3426.063965
1212.272972	1.472948	0.313345	4717.839355
1212.273865	1.433917	0.313345	5998.327148
1212.274897	1.392843	0.313345	7435.741211
1212.275783	1.357870	0.313345	8638.814453
1212.276653	1.325361	0.313345	9791.878906
1212.277649	1.290242	0.313345	11076.959961
1212.278575	1.089049	0.313345	12085.418945
1212.279463	0.154849	0.313345	12222.924805
1212.280432	0.089799	0.313345	12309.939453
1212.281444	0.089835	0.313345	12400.852539
1212.282336	0.089762	0.313345	12480.919922
1212.283196	0.089843	0.313345	12558.184570
1212.284274	0.089828	0.313345	12655.018555
1212.285201	0.089821	0.313345	12738.282227
1212.286074	0.089868	0.313345	12816.737305
1212.287048	0.089927	0.313345	12904.326172
1212.288058	0.089835	0.313345	12995.059570
1213.335608	1.048890	0.283016	441.582825
1213.336592	1.528319	0.283016	1945.448730
1213.337658	1.507983	0.283016	3552.958984
1213.338565	1.467620	0.283016	4884.089844
1213.339429	1.429431	0.283016	6119.118164
1213.340542	1.385738	0.283016	7661.445312
1213.341520	1.348264	0.283016	8980.047852
1213.342390	1.316100	0.283016	10125.054687
1213.343475	1.277871	0.283016	11511.544922
1213.344519	0.558109	0.283016	12094.210937
1213.345413	0.091699	0.283016	12176.190430
1213.346346	0.089883	0.283016	12260.050781
1213.347411	0.089883	0.283016	12355.776367
1213.348359	0.089828	0.283016	12440.933594
1213.349221	0.089963	0.283016	12518.482422
1213.350274	0.089985	0.283016	12613.237305
1213.351293	0.089832	0.283016	12704.775391
1213.352176	0.089843	0.283016	12784.106445
1213.353142	0.089901	0.283016	12870.951172
1213.354177	0.089843	0.283016	12963.938477
1214.306960	1.131918	0.317450	571.618469
1214.307962	1.534508	0.317450	2109.195557
1214.308861	1.510140	0.317450	3466.811523
1214.309853	1.466997	0.317450	4922.072754
1214.310912	1.422275	0.317450	6428.262695
1214.311822	1.385002	0.317450	7688.615234
1214.312687	1.349835	0.317450	8856.222656
1214.313810	1.310266	0.317450	10327.651367
1214.314788	1.276230	0.317450	11575.804687
1214.315665	0.701243	0.317450	12190.794922
1214.316716	0.092765	0.317450	12288.291016
1214.317747	0.089897	0.317450	12380.975586
1214.318637	0.089908	0.317450	12460.994141
1214.319550	0.089879	0.317450	12543.053711
1214.320604	0.089938	0.317450	12637.847656
1214.321541	0.089886	0.317450	12722.071289
1214.322400	0.089875	0.317450	12799.274414
1214.323432	0.089864	0.317450	12892.014648
1214.324448	0.089868	0.317450	12983.320312
1214.325328	0.089832	0.317450	13062.372070
1215.369923	1.180869	0.286956	650.658875
1215.370961	1.534508	0.286956	2243.478271
1215.371856	1.506757	0.286956	3592.025391
1215.372790	1.465620	0.286956	4960.914551
1215.373872	1.420459	0.286956	6497.851074
1215.374816	1.382150	0.286956	7802.600586
1215.375686	1.347909	0.286956	8975.281250
1215.376764	1.309145	0.286956	10386.540039
1215.377764	1.274161	0.286956	11660.701172
1215.378665	0.587805	0.286956	12190.313477
1215.379635	0.092769	0.286956	12280.298828
1215.380678	0.089864	0.286956	12374.027344
1215.381599	0.089806	0.286956	12456.738281
1215.382459	0.089872	0.286956	12534.028320
1215.383533	0.089875	0.286956	12630.554687
1215.384531	0.089846	0.286956	12720.220703
1215.385419	0.089832	0.286956	12799.991211
1215.386288	0.089854	0.286956	12878.074219
1215.387272	0.089927	0.286956	12966.562500
1215.388200	0.089850	0.286956	13049.943359
1216.342585	1.048337	0.320794	440.301727
1216.343477	1.526492	0.320794	1801.932251
1216.344523	1.512107	0.320794	3383.596191
1216.345425	1.472223	0.320794	4711.541016
1216.346313	1.434825	0.320794	5985.666016
1216.347302	1.395015	0.320794	7365.335449
1216.348227	1.358064	0.320794	8621.544922
1216.349107	1.325391	0.320794	9787.888672
1216.350119	1.289993	0.320794	11093.361328
1216.351101	1.025457	0.320794	12100.359375
1216.351992	0.132828	0.320794	12218.708984
1216.352853	0.089667	0.320794	12295.912109
1216.353944	0.089821	0.320794	12393.906250
1216.354852	0.089799	0.320794	12475.443359
1216.355720	0.089843	0.320794	12553.426758
1216.356694	0.089879	0.320794	12640.968750
1216.357705	0.089897	0.320794	12731.855469
1216.358598	0.089740	0.320794	12811.993164
1216.359463	0.089766	0.320794	12889.640625
1216.360527	0.089897	0.320794	12985.291992
1217.405369	1.049791	0.287065	444.061676
1217.406415	1.531805	0.287065	2046.330078
1217.407454	1.506086	0.287065	3611.153809
1217.408350	1.466389	0.287065	4925.038574
1217.409289	1.427124	0.287065	6265.107910
1217.410337	1.384226	0.287065	7715.776855
1217.411291	1.347429	0.287065	9001.224609
1217.412157	1.315302	0.287065	10140.275391
1217.413219	1.278351	0.287065	11497.883789
1217.414241	0.591790	0.287065	12102.692383
1217.415117	0.092747	0.287065	12183.938477
1217.416097	0.089843	0.287065	12271.984375
1217.417128	0.089886	0.287065	12364.657227
1217.418051	0.089868	0.287065	12447.605469
1217.418909	0.089894	0.287065	12524.734375
1217.419980	0.089930	0.287065	12621.049805
1217.420980	0.089832	0.287065	12710.880859
1217.421856	0.089857	0.287065	12789.595703
1217.422842	0.089905	0.287065	12878.242187
1217.423889	0.089857	0.287065	12972.322266
1218.377805	1.068336	0.325185	467.931274
1218.378667	1.528283	0.325185	1785.310791
1218.379718	1.512319	0.325185	3374.758301
1218.380738	1.467506	0.325185	4871.614746
1218.381644	1.429252	0.325185	6166.516602
1218.382603	1.390620	0.325185	7500.121094
1218.383656	1.349656	0.325185	8921.308594
1218.384578	1.315309	0.325185	10134.023437
1218.385442	1.284152	0.325185	11243.530273
1218.386528	0.753849	0.325185	12062.209961
1218.387539	0.093541	0.325185	12156.780273
1218.388422	0.089762	0.325185	12236.040039
1218.389423	0.089879	0.325185	12326.008789
1218.390460	0.089828	0.325185	12419.160156
1218.391366	0.089875	0.325185	12500.586914
1218.392224	0.089832	0.325185	12577.662109
1218.393295	0.089945	0.325185	12673.993164
1218.394291	0.089799	0.325185	12763.432617
1218.395184	0.089883	0.325185	12843.698242
1218.396158	0.089824	0.325185	12931.187500
1219.441099	1.069307	0.290267	469.425659
1219.441967	1.528488	0.290267	1796.152832
1219.443019	1.511964	0.290267	3386.739258
1219.444034	1.467495	0.290267	4876.247070
1219.444931	1.429684	0.290267	6158.673340
1219.445901	1.390576	0.290267	7507.532227
1219.446954	1.349656	0.290267	8928.719727
1219.447878	1.315345	0.290267	10144.098633
1219.448746	1.283613	0.290267	11258.275391
1219.449835	0.738417	0.290267	12062.411133
1219.450832	0.092963	0.290267	12155.094727
1219.451733	0.089751	0.290267	12235.959961
1219.452729	0.089875	0.290267	12325.475586
1219.453788	0.089938	0.290267	12420.719727
1219.454673	0.089883	0.290267	12500.265625
1219.455531	0.089872	0.290267	12577.375977
1219.456625	0.089941	0.290267	12675.771484
1219.457592	0.089780	0.290267	12762.588867
1219.458449	0.089839	0.290267	12839.581055
1219.459520	0.089854	0.290267	12935.814453
1220.413818	1.113201	0.325942	541.015564
1220.414694	1.531553	0.325942	1882.655762
1220.415630	1.514052	0.325942	3299.808105
1220.416701	1.467382	0.325942	4871.374023
1220.417647	1.427278	0.325942	6221.579102
1220.418570	1.390045	0.325942	7504.590820
1220.419448	1.355500	0.325942	8694.720703
1220.420481	1.317916	0.325942	10056.127930
1220.421371	1.285957	0.325942	11200.629883
1220.422256	1.043632	0.325942	12124.244141
1220.423197	0.138772	0.325942	12254.828125
1220.424195	0.089711	0.325942	12344.359375
1220.425112	0.089777	0.325942	12426.684570
1220.425977	0.089861	0.325942	12504.414062
1220.427042	0.089861	0.325942	12600.116211
1220.427919	0.089791	0.325942	12678.863281
1220.428786	0.089843	0.325942	12756.756836
1220.429658	0.089832	0.325942	12835.089844
1220.430710	0.089810	0.325942	12929.569336
1220.431608	0.089850	0.325942	13010.254883
1221.476415	1.183213	0.291492	655.499939
1221.477382	1.534944	0.291492	2139.790527
1221.478260	1.510133	0.291492	3465.687500
1221.479150	1.469887	0.291492	4773.886719
1221.480260	1.425227	0.291492	6355.888672
1221.481142	1.388236	0.291492	7580.312988
1221.482015	1.353051	0.291492	8761.526367
1221.483124	1.313796	0.291492	10218.526367
1221.484081	1.279929	0.291492	11443.418945
1221.484949	0.868883	0.291492	12197.609375
1221.485988	0.098434	0.291492	12299.881836
1221.487019	0.089769	0.291492	12392.433594
1221.487896	0.089755	0.291492	12471.148437
1221.488814	0.089857	0.291492	12553.637695
1221.489874	0.089835	0.291492	12648.863281
1221.490811	0.089799	0.291492	12733.004883
1221.491683	0.089850	0.291492	12811.353516
1221.492715	0.089923	0.291492	12904.154297
1221.493736	0.089813	0.291492	12995.853516
1221.494628	0.089821	0.291492	13075.973633
1222.447313	1.064755	0.329551	470.621521
1222.448173	1.528136	0.329551	1784.818604
1222.449200	1.512612	0.329551	3338.271484
1222.450269	1.467019	0.329551	4906.514648
1222.451151	1.428754	0.329551	6166.675293
1222.452093	1.390448	0.329551	7476.477539
1222.453162	1.349059	0.329551	8918.621094
1222.454105	1.314423	0.329551	10158.121094
1222.454975	1.283401	0.329551	11274.679687
1222.456016	0.770966	0.329551	12077.254883
1222.457029	0.093735	0.329551	12172.208984
1222.457922	0.089832	0.329551	12252.428711
1222.458885	0.089766	0.329551	12338.873047
1222.459940	0.089832	0.329551	12433.645508
1222.460871	0.089828	0.329551	12517.275391
1222.461734	0.089802	0.329551	12594.774414
1222.462814	0.089916	0.329551	12691.883789
1222.463813	0.089824	0.329551	12781.618164
1222.464706	0.089879	0.329551	12861.879883
1222.465698	0.089938	0.329551	12951.097656
1223.510364	1.097622	0.296640	501.613281
1223.511245	1.529993	0.296640	1849.536865
1223.512245	1.513553	0.296640	3363.090332
1223.513299	1.467546	0.296640	4909.884277
1223.514200	1.428688	0.296640	6197.131836
1223.515063	1.391949	0.296640	7398.384277
1223.516151	1.350681	0.296640	8867.925781
1223.517123	1.314716	0.296640	10145.829102
1223.518014	1.283844	0.296640	11289.734375
1223.519027	0.796223	0.296640	12096.308594
1223.520091	0.094083	0.296640	12196.413086
1223.520986	0.089791	0.296640	12276.776367
1223.521866	0.089857	0.296640	12355.850586
1223.522964	0.089886	0.296640	12454.545898
1223.523918	0.089857	0.296640	12540.269531
1223.524785	0.089843	0.296640	12618.163086
1223.525827	0.089901	0.296640	12711.839844
1223.526849	0.089890	0.296640	12803.708008
1223.527740	0.089832	0.296640	12883.748047
1223.528683	0.089854	0.296640	12968.479492
1224.483557	1.104555	0.335034	511.408752
1224.484435	1.530370	0.335034	1855.073486
1224.485400	1.514106	0.335034	3316.186035
1224.486448	1.468312	0.335034	4854.976562
1224.487378	1.428952	0.335034	6183.901367
1224.488244	1.392502	0.335034	7389.808594
1224.489333	1.351483	0.335034	8861.574219
1224.490319	1.314412	0.335034	10157.583984
1224.491219	1.283097	0.335034	11312.371094
1224.492224	0.792433	0.335034	12108.765625
1224.493292	0.093538	0.335034	12208.664062
1224.494186	0.089791	0.335034	12288.937500
1224.495059	0.089857	0.335034	12367.382812
1224.495916	0.089766	0.335034	12444.311523
1224.496973	0.089868	0.335034	12539.301758
1224.497857	0.089824	0.335034	12618.706055
1224.498726	0.089875	0.335034	12696.807617
1224.499709	0.089897	0.335034	12785.176758
1224.500631	0.089824	0.335034	12867.995117
1224.501537	0.089784	0.335034	12949.339844
1225.545954	1.201827	0.295355	709.078186
1225.546955	1.534658	0.295355	2245.270996
1225.547841	1.506932	0.295355	3580.413086
1225.548704	1.467235	0.295355	4846.636719
1225.549812	1.423158	0.295355	6423.496094
1225.550702	1.385790	0.295355	7656.849121
1225.551582	1.351714	0.295355	8846.357422
1225.552594	1.314822	0.295355	10176.957031
1225.553593	1.278845	0.295355	11454.523437
1225.554497	0.800555	0.295355	12178.225586
1225.555493	0.098364	0.295355	12276.196289
1225.556543	0.089810	0.295355	12370.496094
1225.557435	0.089850	0.295355	12450.642578
1225.558317	0.089813	0.295355	12529.857422
1225.559415	0.089824	0.295355	12628.484375
1225.560374	0.089791	0.295355	12714.593750
1225.561239	0.089832	0.295355	12792.297852
1225.562287	0.089861	0.295355	12886.471680
1225.563311	0.089806	0.295355	12978.432617
1225.564208	0.089806	0.295355	13058.988281
1226.519233	1.171000	0.335880	635.852844
1226.520212	1.534457	0.335880	2138.085937
1226.521080	1.510250	0.335880	3448.983154
1226.522157	1.463416	0.335880	5025.081543
1226.523203	1.419544	0.335880	6509.923828
1226.524091	1.383303	0.335880	7738.296875
1226.525026	1.346887	0.335880	8997.636719
1226.526125	1.307373	0.335880	10434.439453
1226.527057	1.274300	0.335880	11622.087891
1226.527930	0.644681	0.335880	12184.894531
1226.528978	0.091436	0.335880	12280.718750
1226.529988	0.089788	0.335880	12371.404297
1226.530881	0.089861	0.335880	12451.650391
1226.531849	0.089923	0.335880	12538.696289
1226.532901	0.089897	0.335880	12633.268555
1226.533830	0.089817	0.335880	12716.708008
1226.534693	0.089901	0.335880	12794.292969
1226.535770	0.089912	0.335880	12891.127930
1226.536750	0.089799	0.335880	12979.130859
1226.537642	0.089905	0.335880	13059.326172
1227.580737	1.061862	0.298525	452.352997
1227.581712	1.527158	0.298525	1941.332275
1227.582766	1.507830	0.298525	3530.584473
1227.583695	1.466847	0.298525	4893.285156
1227.584567	1.429006	0.298525	6139.378906
1227.585660	1.385541	0.298525	7653.774902
1227.586662	1.346521	0.298525	9002.989258
1227.587557	1.313807	0.298525	10178.846680
1227.588544	1.279391	0.298525	11441.605469
1227.589612	0.603245	0.298525	12085.871094
1227.590517	0.091875	0.298525	12169.017578
1227.591378	0.089872	0.298525	12246.397461
1227.592478	0.089908	0.298525	12345.296875
1227.593443	0.089810	0.298525	12431.962891
1227.594301	0.089835	0.298525	12509.041016
1227.595371	0.089857	0.298525	12605.188477
1227.596395	0.089784	0.298525	12697.126953
1227.597281	0.089733	0.298525	12776.629883
1227.598176	0.089835	0.298525	12857.032227
1227.599257	0.089883	0.298525	12954.195312
1228.553689	1.090199	0.337008	486.228760
1228.554555	1.528173	0.337008	1809.626221
1228.555655	1.509547	0.337008	3470.127930
1228.556613	1.467015	0.337008	4875.528809
1228.557491	1.430010	0.337008	6131.077148
1228.558502	1.389408	0.337008	7535.768555
1228.559571	1.348704	0.337008	8977.532227
1228.560438	1.315430	0.337008	10118.009766
1228.561357	1.283335	0.337008	11297.394531
1228.562249	0.953492	0.337008	12147.910156
1228.563208	0.106421	0.337008	12249.967773
1228.564132	0.089817	0.337008	12332.958984
1228.565012	0.089872	0.337008	12412.045898
1228.565987	0.089886	0.337008	12499.685547
1228.566925	0.089883	0.337008	12583.996094
1228.567852	0.089835	0.337008	12667.273437
1228.568718	0.089875	0.337008	12745.105469
1228.569753	0.089868	0.337008	12838.119141
1228.570635	0.089835	0.337008	12917.353516
1228.571504	0.089927	0.337008	12995.500000
1229.616585	1.058426	0.298094	461.473969
1229.617454	1.528403	0.298094	1789.656494
1229.618338	1.517128	0.298094	3130.797363
1229.619446	1.471165	0.298094	4760.847656
1229.620343	1.432441	0.298094	6045.747559
1229.621225	1.394744	0.298094	7275.911133
1229.622336	1.352915	0.298094	8779.000000
1229.623307	1.317052	0.298094	10057.857422
1229.624179	1.286199	0.298094	11179.422852
1229.625208	0.865269	0.298094	12069.784180
1229.626243	0.096965	0.298094	12170.143555
1229.627130	0.089824	0.298094	12249.817383
1229.628050	0.089864	0.298094	12332.493164
1229.629101	0.089810	0.298094	12426.882812
1229.630045	0.089821	0.298094	12511.673828
1229.630905	0.089733	0.298094	12588.843750
1229.631950	0.089941	0.298094	12682.832031
1229.632955	0.089868	0.298094	12773.149414
1229.633847	0.089762	0.298094	12853.216797
1229.634805	0.089846	0.298094	12939.289062
1230.588833	1.135459	0.341286	577.948608
1230.589799	1.533798	0.341286	2059.597168
1230.590660	1.512272	0.341286	3361.663086
1230.591738	1.464756	0.341286	4940.669922
1230.592803	1.420997	0.341286	6454.032227
1230.593685	1.384640	0.341286	7675.284668
1230.594627	1.348070	0.341286	8945.166992
1230.595707	1.308648	0.341286	10358.505859
1230.596644	1.275751	0.341286	11553.884766
1230.597519	0.705311	0.341286	12171.032227
1230.598573	0.092069	0.341286	12268.073242
1230.599590	0.089788	0.341286	12359.387695
1230.600480	0.089806	0.341286	12439.315430
1230.601445	0.089854	0.341286	12526.024414
1230.602499	0.089799	0.341286	12620.671875
1230.603419	0.089769	0.341286	12703.259766
1230.604283	0.089857	0.341286	12780.896484
1230.605344	0.089828	0.341286	12876.204102
1230.606329	0.089810	0.341286	12964.666992
1230.607221	0.089850	0.341286	13044.813477
1231.651638	1.057229	0.301119	445.093414
1231.652675	1.532307	0.301119	2034.095947
1231.653578	1.511492	0.301119	3398.972900
1231.654460	1.472827	0.301119	4698.006348
1231.655397	1.433280	0.301119	6040.989746
1231.656391	1.392678	0.301119	7425.312012
1231.657314	1.356475	0.301119	8677.337891
1231.658189	1.323629	0.301119	9835.513672
1231.659289	1.285649	0.301119	11249.728516
1231.660186	0.997529	0.301119	12144.512695
1231.661050	0.128580	0.301119	12255.606445
1231.662075	0.089839	0.301119	12347.691406
1231.663038	0.089817	0.301119	12434.185547
1231.663905	0.089766	0.301119	12512.012695
1231.664772	0.089780	0.301119	12589.852539
1231.665870	0.089967	0.301119	12688.636719
1231.666780	0.089828	0.301119	12770.379883
1231.667648	0.089846	0.301119	12848.366211
1231.668702	0.089967	0.301119	12943.191406
1231.669678	0.089758	0.301119	13030.795898
1232.623563	1.071064	0.342482	461.628784
1232.624514	1.527579	0.342482	1914.356812
1232.625575	1.508038	0.342482	3514.385498
1232.626503	1.467283	0.342482	4876.023926
1232.627369	1.429937	0.342482	6114.349121
1232.628442	1.386863	0.342482	7602.453125
1232.629460	1.347480	0.342482	8974.188477
1232.630345	1.314906	0.342482	10137.879883
1232.631345	1.280336	0.342482	11418.215820
1232.632399	0.642642	0.342482	12095.560547
1232.633300	0.092970	0.342482	12179.326172
1232.634157	0.089886	0.342482	12256.358398
1232.635244	0.089978	0.342482	12354.164062
1232.636216	0.089857	0.342482	12441.504883
1232.637103	0.089839	0.342482	12521.192383
1232.638102	0.089919	0.342482	12611.021484
1232.639155	0.089846	0.342482	12705.629883
1232.640045	0.089846	0.342482	12785.592773
1232.640913	0.089912	0.342482	12863.636719
1232.642011	0.089883	0.342482	12962.328125
1233.686092	1.083091	0.301977	475.476898
1233.686974	1.529381	0.301977	1824.390991
1233.687979	1.512927	0.301977	3344.882812
1233.689050	1.466909	0.301977	4915.942383
1233.689948	1.427878	0.301977	6198.177246
1233.690838	1.390906	0.301977	7436.083496
1233.691945	1.349015	0.301977	8929.443359
1233.692912	1.313540	0.301977	10199.636719
1233.693785	1.282544	0.301977	11319.297852
1233.694841	0.723343	0.301977	12083.148437
1233.695872	0.092333	0.301977	12178.343750
1233.696766	0.089821	0.301977	12258.643555
1233.697716	0.089854	0.301977	12344.003906
1233.698750	0.089912	0.301977	12436.972656
1233.699680	0.089905	0.301977	12520.583984
1233.700543	0.089850	0.301977	12598.124023
1233.701608	0.089905	0.301977	12693.873047
1233.702614	0.089857	0.301977	12784.269531
1233.703494	0.089813	0.301977	12863.304687
1233.704475	0.089949	0.301977	12951.543945
1234.657734	1.064901	0.343973	461.102173
1234.658593	1.527008	0.343973	1772.802124
1234.659594	1.513839	0.343973	3288.155029
1234.660522	1.473754	0.343973	4655.798340
1234.661398	1.435986	0.343973	5913.722168
1234.662440	1.393960	0.343973	7366.228516
1234.663337	1.358657	0.343973	8584.944336
1234.664218	1.325794	0.343973	9752.968750
1234.665184	1.292014	0.343973	11001.054687
1234.666170	1.091770	0.343973	12077.540039
1234.667096	0.145214	0.343973	12212.007812
1234.667958	0.089780	0.343973	12289.398437
1234.668993	0.089872	0.343973	12382.416016
1234.669873	0.089894	0.343973	12461.522461
1234.670728	0.089872	0.343973	12538.363281
1234.671749	0.089854	0.343973	12630.103516
1234.672721	0.089813	0.343973	12717.402344
1234.673597	0.089810	0.343973	12796.075195
1234.674459	0.089883	0.343973	12873.553711
1234.675580	0.089843	0.343973	12974.267578
1235.722353	1.110677	0.305836	519.797058
1235.723245	1.531300	0.305836	1885.716553
1235.724206	1.513407	0.305836	3340.100586
1235.725251	1.467451	0.305836	4873.586914
1235.726184	1.428007	0.305836	6205.916992
1235.727049	1.391807	0.305836	7409.829590
1235.728121	1.351128	0.305836	8858.238281
1235.729129	1.313712	0.305836	10182.459961
1235.730016	1.282489	0.305836	11320.027344
1235.731010	0.793583	0.305836	12108.848633
1235.732084	0.094530	0.305836	12210.374023
1235.732984	0.089879	0.305836	12291.265625
1235.733841	0.089843	0.305836	12368.260742
1235.734934	0.089938	0.305836	12466.562500
1235.735911	0.089864	0.305836	12554.360352
1235.736774	0.089985	0.305836	12632.017578
1235.737773	0.090000	0.305836	12721.927734
1235.738824	0.089905	0.305836	12816.417969
1235.739716	0.089919	0.305836	12896.625977
1235.740588	0.089916	0.305836	12975.032227
1236.690853	1.127846	0.349669	598.885986
1236.691913	1.533223	0.349669	2224.102051
1236.692832	1.505116	0.349669	3607.303711
1236.693703	1.465371	0.349669	4883.642090
1236.694824	1.419492	0.349669	6474.893066
1236.695827	1.378960	0.349669	7857.990234
1236.696731	1.344551	0.349669	9073.463867
1236.697717	1.308648	0.349669	10363.790039
1236.698783	1.271847	0.349669	11719.579102
1236.699691	0.489807	0.349669	12164.324219
1236.700569	0.091542	0.349669	12244.698242
1236.701661	0.089923	0.349669	12342.894531
1236.702608	0.089960	0.349669	12428.085937
1236.703468	0.089897	0.349669	12505.397461
1236.704513	0.089908	0.349669	12599.351562
1236.705532	0.089854	0.349669	12690.912109
1236.706416	0.089861	0.349669	12770.348633
1236.707354	0.089875	0.349669	12854.651367
1236.708416	0.089901	0.349669	12950.125977
1236.709348	0.089872	0.349669	13033.886719
1237.758401	1.163818	0.304688	651.738281
1237.759328	1.534021	0.304688	2073.775879
1237.760199	1.511818	0.304688	3390.568848
1237.761175	1.469019	0.304688	4824.331055
1237.762198	1.425538	0.304688	6282.656738
1237.763094	1.389163	0.304688	7527.346680
1237.763961	1.354475	0.304688	8701.676758
1237.765040	1.315693	0.304688	10121.309570
1237.765970	1.282687	0.304688	11314.208008
1237.766874	0.927707	0.304688	12152.855469
1237.767839	0.112485	0.304688	12261.404297
1237.768849	0.089894	0.304688	12352.197266
1237.769744	0.089864	0.304688	12432.625977
1237.770607	0.089894	0.304688	12510.204102
1237.771664	0.089963	0.304688	12605.294922
1237.772600	0.089941	0.304688	12689.480469
1237.773463	0.089846	0.304688	12767.017578
1237.774519	0.089956	0.304688	12862.010742
1237.775527	0.089799	0.304688	12952.527344
1237.776404	0.089806	0.304688	13031.287109
1238.724145	1.163870	0.351345	634.308960
1238.725210	1.533516	0.351345	2267.503174
1238.726105	1.505270	0.351345	3614.719727
1238.726990	1.464888	0.351345	4911.145508
1238.728080	1.420466	0.351345	6459.453613
1238.729050	1.381611	0.351345	7799.616211
1238.729920	1.347788	0.351345	8972.191406
1238.730967	1.309764	0.351345	10343.514648
1238.731995	1.273923	0.351345	11653.107422
1238.732890	0.598381	0.351345	12188.658203
1238.733827	0.093237	0.351345	12276.021484
1238.734885	0.089864	0.351345	12371.097656
1238.735833	0.089985	0.351345	12456.403320
1238.736692	0.089839	0.351345	12533.575195
1238.737745	0.089952	0.351345	12628.294922
1238.738773	0.089875	0.351345	12720.686523
1238.739647	0.089817	0.351345	12799.186523
1238.740626	0.089971	0.351345	12887.267578
1238.741674	0.089974	0.351345	12981.560547
1238.742599	0.089875	0.351345	13064.695312
1239.793093	1.063469	0.308016	457.291748
1239.794130	1.530663	0.308016	2044.589111
1239.795171	1.505724	0.308016	3612.047607
1239.796063	1.465931	0.308016	4919.658203
1239.796995	1.427113	0.308016	6249.727539
1239.798055	1.383805	0.308016	7716.560547
1239.799005	1.347338	0.308016	8996.531250
1239.799872	1.314807	0.308016	10136.468750
1239.800923	1.278351	0.308016	11480.015625
1239.801946	0.610338	0.308016	12104.391602
1239.802827	0.092963	0.308016	12186.291992
1239.803785	0.089941	0.308016	12272.456055
1239.804839	0.089934	0.308016	12367.246094
1239.805760	0.089861	0.308016	12450.007812
1239.806660	0.089835	0.308016	12530.859375
1239.807529	0.089927	0.308016	12609.005859
1239.808544	0.089883	0.308016	12700.237305
1239.809441	0.089890	0.308016	12780.869141
1239.810317	0.089846	0.308016	12859.574219
1239.811255	0.089930	0.308016	12943.928711
1240.760253	1.056438	0.353931	447.929749
1240.761310	1.531377	0.353931	2066.595215
1240.762259	1.508610	0.353931	3498.265625
1240.763131	1.470176	0.353931	4780.258789
1240.764070	1.430068	0.353931	6123.092773
1240.765154	1.386672	0.353931	7626.245605
1240.766042	1.351615	0.353931	8826.479492
1240.766999	1.316664	0.353931	10086.526367
1240.768062	1.278992	0.353931	11446.094727
1240.769001	0.749894	0.353931	12150.245117
1240.769867	0.097903	0.353931	12235.029297
1240.770921	0.089890	0.353931	12329.773437
1240.771929	0.089839	0.353931	12420.331055
1240.772827	0.089868	0.353931	12501.032227
1240.773788	0.089949	0.353931	12587.472656
1240.774841	0.089843	0.353931	12682.077148
1240.775755	0.089879	0.353931	12764.226562
1240.776617	0.089861	0.353931	12841.686523
1240.777701	0.089938	0.353931	12939.178711
1240.778689	0.089894	0.353931	13027.994141
1241.829438	1.054482	0.306727	447.100555
1241.830445	1.528480	0.306727	1986.280273
1241.831480	1.507419	0.306727	3546.459473
1241.832384	1.467393	0.306727	4872.982422
1241.833254	1.428966	0.306727	6116.182617
1241.834360	1.385874	0.306727	7648.959473
1241.835336	1.348085	0.306727	8964.690430
1241.836197	1.315873	0.306727	10097.657227
1241.837284	1.278270	0.306727	11487.136719
1241.838328	0.595660	0.306727	12109.005859
1241.839204	0.092227	0.306727	12189.795898
1241.840141	0.089872	0.306727	12274.005859
1241.841200	0.089989	0.306727	12369.304687
1241.842146	0.089758	0.306727	12454.215820
1241.843013	0.089916	0.306727	12532.172852
1241.844020	0.090000	0.306727	12622.802734
1241.845039	0.089824	0.306727	12714.333984
1241.845934	0.089868	0.306727	12794.765625
1241.846864	0.089960	0.306727	12878.427734
1241.847920	0.089890	0.306727	12973.351562
1242.794808	1.157329	0.354620	620.328369
1242.795701	1.532662	0.354620	1988.995850
1242.796570	1.513597	0.354620	3304.312012
1242.797480	1.472443	0.354620	4644.234863
1242.798527	1.429076	0.354620	6140.477539
1242.799426	1.392316	0.354620	7392.169434
1242.800312	1.358093	0.354620	8595.440430
1242.801320	1.321296	0.354620	9927.306641
1242.802243	1.287770	0.354620	11115.917969
1242.803124	1.108143	0.354620	12092.192383
1242.804105	0.152911	0.354620	12242.198242
1242.805103	0.089681	0.354620	12331.700195
1242.805991	0.089846	0.354620	12411.483398
1242.806851	0.089993	0.354620	12488.876953
1242.807928	0.089864	0.354620	12585.661133
1242.808839	0.089810	0.354620	12667.477539
1242.809713	0.089901	0.354620	12746.050781
1242.810683	0.089941	0.354620	12833.293945
1242.811691	0.089817	0.354620	12923.829102
1242.812582	0.089963	0.354620	13003.986328
1243.864239	1.159911	0.305184	612.432922
1243.865208	1.534321	0.305184	2099.190186
1243.866075	1.510968	0.305184	3409.199463
1243.867122	1.465210	0.305184	4943.274414
1243.868161	1.421862	0.305184	6420.588379
1243.869046	1.385753	0.305184	7646.979980
1243.869987	1.349473	0.305184	8916.833984
1243.871035	1.310735	0.305184	10290.484375
1243.871980	1.277747	0.305184	11497.955078
1243.872846	0.783208	0.305184	12176.212891
1243.873902	0.094043	0.305184	12275.522461
1243.874927	0.089791	0.305184	12367.558594
1243.875801	0.089861	0.305184	12446.096680
1243.876778	0.089894	0.305184	12533.922852
1243.877835	0.089894	0.305184	12628.940430
1243.878753	0.089861	0.305184	12711.432617
1243.879621	0.089806	0.305184	12789.383789
1243.880685	0.089846	0.305184	12884.980469
1243.881687	0.089875	0.305184	12975.036133
1243.882578	0.089788	0.305184	13055.037109
1244.828262	1.107393	0.355889	507.185791
1244.829142	1.529824	0.355889	1853.431030
1244.830156	1.511935	0.355889	3386.532715
1244.831215	1.465997	0.355889	4939.023926
1244.832114	1.427325	0.355889	6222.189453
1244.832975	1.390236	0.355889	7419.182617
1244.834076	1.348949	0.355889	8904.375000
1244.835058	1.313317	0.355889	10194.051758
1244.835930	1.282269	0.355889	11312.190430
1244.836962	0.749604	0.355889	12085.782227
1244.837997	0.093215	0.355889	12182.259766
1244.838892	0.089824	0.355889	12262.652344
1244.839800	0.089806	0.355889	12344.196289
1244.840859	0.089879	0.355889	12439.377930
1244.841809	0.089854	0.355889	12524.738281
1244.842732	0.089835	0.355889	12607.656250
1244.843601	0.089850	0.355889	12685.735352
1244.844629	0.089908	0.355889	12778.161133
1244.845521	0.089861	0.355889	12858.317383
1244.846394	0.089861	0.355889	12936.765625
1245.900083	1.165411	0.309325	637.479980
1245.901158	1.533439	0.309325	2285.926514
1245.902052	1.504713	0.309325	3631.140137
1245.902942	1.464108	0.309325	4934.195801
1245.904051	1.418844	0.309325	6507.693848
1245.905016	1.380231	0.309325	7839.616699
1245.905886	1.346393	0.309325	9010.978516
1245.906931	1.308391	0.309325	10378.247070
1245.907968	1.272268	0.309325	11697.588867
1245.908876	0.529830	0.309325	12178.674805
1245.909831	0.091967	0.309325	12266.502930
1245.910888	0.089850	0.309325	12361.474609
1245.911820	0.089894	0.309325	12445.255859
1245.912685	0.089832	0.309325	12522.959961
1245.913760	0.089945	0.309325	12619.651367
1245.914747	0.089846	0.309325	12708.329102
1245.915629	0.089744	0.309325	12787.483398
1245.916620	0.089894	0.309325	12876.568359
1245.917663	0.089832	0.309325	12970.262695
1245.918572	0.089854	0.309325	13051.939453
1246.862139	1.052607	0.362805	444.200317
1246.863095	1.526602	0.362805	1903.631348
1246.864155	1.507885	0.362805	3501.988770
1246.865089	1.466847	0.362805	4872.023926
1246.865958	1.429186	0.362805	6113.986328
1246.867038	1.386152	0.362805	7611.030762
1246.868030	1.347737	0.362805	8947.985352
1246.868924	1.314968	0.362805	10123.567383
1246.869910	1.280801	0.362805	11386.436523
1246.870964	0.665343	0.362805	12087.708008
1246.871859	0.093534	0.362805	12171.420898
1246.872716	0.089736	0.362805	12248.325195
1246.873810	0.089897	0.362805	12346.672852
1246.874798	0.089835	0.362805	12435.429687
1246.875680	0.089824	0.362805	12514.654297
1246.876692	0.089963	0.362805	12605.697266
1246.877733	0.089854	0.362805	12699.234375
1246.878603	0.089802	0.362805	12777.362305
1246.879479	0.089886	0.362805	12856.102539
1246.880576	0.089919	0.362805	12954.744141
1247.935159	1.050458	0.307673	441.192230
1247.936027	1.526268	0.307673	1765.993042
1247.937131	1.509653	0.307673	3432.650391
1247.938097	1.467989	0.307673	4850.728027
1247.938961	1.431057	0.307673	6087.161133
1247.939999	1.388972	0.307673	7528.914062
1247.941041	1.348986	0.307673	8934.556641
1247.941931	1.315558	0.307673	10105.403320
1247.942856	1.282884	0.307673	11292.071289
1247.943919	0.735970	0.307673	12074.408203
1247.944854	0.094948	0.307673	12163.184570
1247.945783	0.089806	0.307673	12246.614258
1247.946642	0.089857	0.307673	12323.801758
1247.947659	0.089813	0.307673	12415.141602
1247.948558	0.089832	0.307673	12495.900391
1247.949433	0.089769	0.307673	12574.448242
1247.950333	0.089886	0.307673	12655.345703
1247.951337	0.089813	0.307673	12745.518555
1247.952266	0.089839	0.307673	12828.978516
1247.953143	0.089864	0.307673	12907.790039
1248.897872	1.087522	0.360642	479.597168
1248.898756	1.529161	0.360642	1831.375732
1248.899624	1.515930	0.360642	3147.203125
1248.900743	1.469718	0.360642	4791.817383
1248.901653	1.430394	0.360642	6093.476074
1248.902541	1.394392	0.360642	7331.696289
1248.903530	1.356280	0.360642	8673.057617
1248.904535	1.318553	0.360642	9998.204102
1248.905432	1.286807	0.360642	11152.469727
1248.906294	1.036831	0.360642	12046.217773
1248.907395	0.118099	0.360642	12176.245117
1248.908303	0.089718	0.360642	12257.708984
1248.909163	0.089908	0.360642	12335.030273
1248.910256	0.089875	0.360642	12433.264648
1248.911236	0.089839	0.360642	12521.306641
1248.912116	0.089769	0.360642	12600.303711
1248.913105	0.089949	0.360642	12689.262695
1248.914173	0.089824	0.360642	12785.195312
1248.915050	0.089912	0.360642	12864.047852
1248.915913	0.089934	0.360642	12941.661133
1249.969961	1.146072	0.311512	592.519104
1249.970969	1.533827	0.311512	2138.616699
1249.971871	1.508134	0.311512	3498.953125
1249.972834	1.466404	0.311512	4911.099609
1249.973898	1.421433	0.311512	6423.504395
1249.974825	1.383592	0.311512	7706.094727
1249.975697	1.348901	0.311512	8882.336914
1249.976787	1.309926	0.311512	10310.156250
1249.977786	1.274667	0.311512	11583.548828
1249.978691	0.644700	0.311512	12167.001953
1249.979691	0.093047	0.311512	12260.048828
1249.980742	0.089883	0.311512	12354.515625
1249.981627	0.089868	0.311512	12434.048828
1249.982494	0.089864	0.311512	12511.960937
1249.983574	0.089916	0.311512	12609.070312
1249.984537	0.089784	0.311512	12695.532227
1249.985396	0.089762	0.311512	12772.637695
1249.986481	0.089875	0.311512	12870.152344
1249.987503	0.089897	0.311512	12962.027344
1249.988382	0.089868	0.311512	13041.021484
1250.932946	1.187922	0.360964	684.243286
1250.934008	1.533278	0.360964	2312.583984
1250.934913	1.503424	0.360964	3673.182617
1250.935815	1.462650	0.360964	4992.493164
1250.936905	1.418159	0.360964	6538.286621
1250.937858	1.379916	0.360964	7853.346680
1250.938723	1.346309	0.360964	9017.903320
1250.939762	1.308578	0.360964	10377.515625
1250.940797	1.272700	0.360964	11694.760742
1250.941680	0.574493	0.360964	12202.038086
1250.942600	0.092003	0.360964	12286.680664
1250.943457	0.089993	0.360964	12363.804687
1250.944433	0.090011	0.360964	12451.655273
1250.945365	0.089883	0.360964	12535.425781
1250.946243	0.090004	0.360964	12614.449219
1250.947284	0.090018	0.360964	12708.158203
1250.948190	0.089919	0.360964	12789.625000
1250.949065	0.089901	0.360964	12868.288086
1250.949922	0.089985	0.360964	12945.405273
1250.950972	0.089941	0.360964	13039.843750
1252.005175	1.048389	0.308769	443.468414
1252.006189	1.529344	0.308769	1994.223633
1252.007249	1.506237	0.308769	3590.834473
1252.008149	1.465917	0.308769	4910.159668
1252.009030	1.427395	0.308769	6167.694824
1252.010123	1.384416	0.308769	7680.862305
1252.011084	1.347433	0.308769	8975.745117
1252.011953	1.315192	0.308769	10118.646484
1252.012995	1.279135	0.308769	11451.504883
1252.014029	0.618959	0.308769	12091.507812
1252.014910	0.093142	0.308769	12173.566406
1252.015865	0.089872	0.308769	12259.393555
1252.016932	0.089883	0.308769	12355.298828
1252.017866	0.089890	0.308769	12439.255859
1252.018722	0.089824	0.308769	12516.145508
1252.019775	0.089927	0.308769	12610.838867
1252.020786	0.089864	0.308769	12701.691406
1252.021656	0.089846	0.308769	12779.857422
1252.022606	0.089875	0.308769	12865.239258
1252.023660	0.089952	0.308769	12960.048828
1252.967405	1.117335	0.361242	521.795532
1252.968289	1.530297	0.361242	1874.577637
1252.969293	1.511613	0.361242	3392.236572
1252.970352	1.465481	0.361242	4944.180664
1252.971253	1.426992	0.361242	6229.900391
1252.972115	1.390239	0.361242	7428.286621
1252.973210	1.349260	0.361242	8905.726562
1252.974178	1.313536	0.361242	10177.229492
1252.975058	1.282738	0.361242	11306.039062
1252.976079	0.773518	0.361242	12095.800781
1252.977130	0.094142	0.361242	12194.744141
1252.978016	0.089956	0.361242	12274.445312
1252.978894	0.089897	0.361242	12353.375000
1252.979988	0.089941	0.361242	12451.770508
1252.980956	0.089854	0.361242	12538.749023
1252.981826	0.089952	0.361242	12617.007812
1252.982837	0.090000	0.361242	12707.998047
1252.983878	0.089916	0.361242	12801.600586
1252.984771	0.089963	0.361242	12881.937500
1252.985706	0.089952	0.361242	12966.042969
1254.039732	1.165594	0.310723	637.580139
1254.040733	1.534083	0.310723	2173.197510
1254.041626	1.507925	0.310723	3519.774414
1254.042619	1.464741	0.310723	4974.262695
1254.043685	1.420448	0.310723	6488.460449
1254.044581	1.383171	0.310723	7727.782227
1254.045473	1.348055	0.310723	8930.248047
1254.046553	1.309318	0.310723	10344.310547
1254.047514	1.275787	0.310723	11570.341797
1254.048384	0.718685	0.310723	12195.597656
1254.049428	0.093113	0.310723	12292.807617
1254.050457	0.089868	0.310723	12385.282227
1254.051338	0.089938	0.310723	12464.517578
1254.052272	0.089872	0.310723	12548.458008
1254.053335	0.089919	0.310723	12644.041992
1254.054260	0.089971	0.310723	12727.264648
1254.055125	0.089832	0.310723	12804.968750
1254.056148	0.089927	0.310723	12896.963867
1254.057167	0.089879	0.310723	12988.550781
1254.058054	0.089901	0.310723	13068.292969
1255.002088	1.085640	0.359276	510.250610
1255.003175	1.532476	0.359276	2176.051758
1255.004129	1.504940	0.359276	3611.764648
1255.005001	1.466107	0.359276	4890.209961
1255.006061	1.421763	0.359276	6397.278320
1255.007084	1.380593	0.359276	7809.625000
1255.007990	1.345635	0.359276	9028.770508
1255.008952	1.311097	0.359276	10290.045898
1255.009996	1.274019	0.359276	11620.121094
1255.010930	0.568213	0.359276	12150.832031
1255.011790	0.092589	0.359276	12230.458984
1255.012852	0.089883	0.359276	12325.914062
1255.013857	0.089930	0.359276	12416.293945
1255.014731	0.089894	0.359276	12494.861328
1255.015711	0.089949	0.359276	12583.010742
1255.016754	0.089916	0.359276	12676.792969
1255.017666	0.089919	0.359276	12758.799805
1255.018522	0.089919	0.359276	12835.770508
1255.019583	0.089927	0.359276	12931.182617
1255.020572	0.089832	0.359276	13020.026367
1256.073933	1.062843	0.312528	466.588104
1256.074813	1.527766	0.312528	1811.022339
1256.075675	1.518508	0.312528	3119.976562
1256.076720	1.474065	0.312528	4660.374512
1256.077608	1.434558	0.312528	5934.262207
1256.078529	1.397307	0.312528	7221.182129
1256.079410	1.361569	0.312528	8420.723633
1256.080449	1.323706	0.312528	9796.054687
1256.081349	1.291626	0.312528	10958.517578
1256.082232	1.206570	0.312528	12023.918945
1256.083230	0.197336	0.312528	12220.860352
1256.084163	0.089689	0.312528	12304.540039
1256.085038	0.089843	0.312528	12383.152344
1256.085996	0.089872	0.312528	12469.250000
1256.087006	0.089780	0.312528	12559.927734
1256.087888	0.089828	0.312528	12639.156250
1256.088744	0.089810	0.312528	12716.033203
1256.089826	0.089901	0.312528	12813.306641
1256.090754	0.089802	0.312528	12896.643555
1256.091617	0.089894	0.312528	12974.221680
1257.037884	1.051062	0.366153	442.497101
1257.038869	1.527089	0.366153	1946.679443
1257.039915	1.507170	0.366153	3523.179687
1257.040826	1.466861	0.366153	4859.490234
1257.041703	1.428468	0.366153	6112.256836
1257.042795	1.385387	0.366153	7625.099609
1257.043777	1.347188	0.366153	8948.038086
1257.044664	1.315049	0.366153	10114.486328
1257.045669	1.280028	0.366153	11400.914062
1257.046719	0.657019	0.366153	12090.784180
1257.047609	0.093333	0.366153	12173.850586
1257.048485	0.089923	0.366153	12252.623047
1257.049585	0.089908	0.366153	12351.522461
1257.050546	0.089843	0.366153	12437.861328
1257.051409	0.089817	0.366153	12515.373047
1257.052442	0.090062	0.366153	12608.407227
1257.053459	0.089905	0.366153	12699.840820
1257.054339	0.089960	0.366153	12779.005859
1257.055250	0.089930	0.366153	12860.932617
1257.056317	0.089897	0.366153	12956.853516
1258.108849	1.166316	0.310409	633.309570
1258.109919	1.532915	0.310409	2273.528809
1258.110820	1.504252	0.310409	3628.859619
1258.111708	1.464177	0.310409	4929.048828
1258.112808	1.419188	0.310409	6490.155762
1258.113769	1.380626	0.310409	7816.937500
1258.114644	1.346748	0.310409	8995.341797
1258.115686	1.308827	0.310409	10359.139648
1258.116722	1.272623	0.310409	11677.577148
1258.117628	0.553282	0.310409	12178.850586
1258.118566	0.092454	0.310409	12265.572266
1258.119602	0.089894	0.310409	12358.702148
1258.120536	0.089857	0.310409	12442.628906
1258.121398	0.089788	0.310409	12520.025391
1258.122446	0.089985	0.310409	12614.330078
1258.123467	0.089854	0.310409	12706.070312
1258.124350	0.089846	0.310409	12785.404297
1258.125308	0.089934	0.310409	12871.561523
1258.126342	0.089927	0.310409	12964.545898
1258.127263	0.089813	0.310409	13047.263672
1259.073040	1.129164	0.364279	573.615234
1259.073947	1.532010	0.364279	1963.148682
1259.074881	1.511653	0.364279	3375.032471
1259.075747	1.472117	0.364279	4649.885742
1259.076790	1.429362	0.364279	6140.709961
1259.077675	1.393107	0.364279	7373.609375
1259.078554	1.358829	0.364279	8568.020508
1259.079554	1.322333	0.364279	9890.353516
1259.080480	1.288605	0.364279	11083.601562
1259.081384	1.099252	0.364279	12077.325195
1259.082262	0.160770	0.364279	12218.481445
1259.083281	0.089850	0.364279	12310.038086
1259.084182	0.089857	0.364279	12390.999023
1259.085059	0.089908	0.364279	12469.848633
1259.085993	0.089956	0.364279	12553.867187
1259.086977	0.089802	0.364279	12642.232422
1259.087856	0.089890	0.364279	12721.246094
1259.088712	0.089919	0.364279	12798.216797
1259.089824	0.089923	0.364279	12898.210937
1259.090709	0.089821	0.364279	12977.702148
1260.142750	1.135909	0.315931	578.177917
1260.143681	1.532992	0.315931	2005.393311
1260.144541	1.512740	0.315931	3306.350098
1260.145623	1.466448	0.315931	4893.046387
1260.146636	1.423656	0.315931	6335.209961
1260.147519	1.387603	0.315931	7560.462891
1260.148504	1.350037	0.315931	8890.249023
1260.149565	1.311024	0.315931	10281.246094
1260.150471	1.278538	0.315931	11439.601562
1260.151350	0.795886	0.315931	12139.185547
1260.152423	0.093680	0.315931	12239.705078
1260.153418	0.089817	0.315931	12329.073242
1260.154314	0.089938	0.315931	12409.657227
1260.155300	0.090004	0.315931	12498.400391
1260.156340	0.089872	0.315931	12591.867187
1260.157251	0.089897	0.315931	12673.763672
1260.158116	0.089978	0.315931	12751.594727
1260.159223	0.089927	0.315931	12851.143555
1260.160189	0.089894	0.315931	12937.981445
1260.161059	0.089905	0.315931	13016.198242
1261.107510	1.051161	0.364026	443.589874
1261.108514	1.527012	0.364026	1976.709595
1261.109579	1.505782	0.364026	3580.367920
1261.110486	1.465551	0.364026	4909.622070
1261.111358	1.426747	0.364026	6153.745117
1261.112470	1.383446	0.364026	7692.137207
1261.113447	1.346243	0.364026	9007.416016
1261.114320	1.313965	0.364026	10154.507812
1261.115408	1.275941	0.364026	11542.731445
1261.116451	0.513252	0.364026	12078.052734
1261.117350	0.091047	0.364026	12159.904297
1261.118301	0.089956	0.364026	12245.452148
1261.119335	0.089886	0.364026	12338.394531
1261.120271	0.089956	0.364026	12422.593750
1261.121132	0.089835	0.364026	12499.941406
1261.122192	0.089923	0.364026	12595.259766
1261.123206	0.089821	0.364026	12686.337891
1261.124091	0.089886	0.364026	12765.887695
1261.125080	0.089839	0.364026	12854.738281
1261.126122	0.089923	0.364026	12948.438477
1262.176609	1.110117	0.313224	510.653900
1262.177499	1.530333	0.313224	1872.650391
1262.178365	1.515117	0.313224	3184.741943
1262.179498	1.468586	0.313224	4848.650391
1262.180403	1.429431	0.313224	6142.285645
1262.181267	1.392396	0.313224	7345.315918
1262.182387	1.350498	0.313224	8857.874023
1262.183355	1.315115	0.313224	10130.905273
1262.184220	1.284507	0.313224	11242.003906
1262.185266	0.805781	0.313224	12084.851562
1262.186304	0.095046	0.313224	12183.509766
1262.187184	0.089813	0.313224	12262.544922
1262.188121	0.089934	0.313224	12346.813477
1262.189163	0.089927	0.313224	12440.517578
1262.190108	0.089934	0.313224	12525.504883
1262.190969	0.089864	0.313224	12602.877930
1262.191999	0.089963	0.313224	12695.540039
1262.193025	0.089901	0.313224	12787.778320
1262.193915	0.089886	0.313224	12867.777344
1262.194860	0.089945	0.313224	12952.775391
1263.143014	1.105635	0.363611	506.380676
1263.143903	1.529824	0.363611	1866.394287
1263.144891	1.511774	0.363611	3360.026611
1263.145949	1.465562	0.363611	4910.590820
1263.146868	1.426611	0.363611	6221.646484
1263.147738	1.390159	0.363611	7431.084473
1263.148834	1.348704	0.363611	8909.263672
1263.149828	1.311874	0.363611	10213.266602
1263.150730	1.280391	0.363611	11368.178711
1263.151724	0.741760	0.363611	12105.488281
1263.152769	0.092996	0.363611	12202.668945
1263.153655	0.089824	0.363611	12282.252930
1263.154537	0.089971	0.363611	12361.607422
1263.155618	0.089989	0.363611	12458.885742
1263.156576	0.089912	0.363611	12545.021484
1263.157436	0.089857	0.363611	12622.298828
1263.158456	0.089989	0.363611	12714.087891
1263.159490	0.089883	0.363611	12807.026367
1263.160361	0.089886	0.363611	12885.317383
1263.161258	0.089846	0.363611	12965.909180
1264.212664	1.156135	0.313611	619.688477
1264.213544	1.532260	0.313611	1968.076904
1264.214406	1.514044	0.313611	3273.183105
1264.215480	1.467601	0.313611	4849.386719
1264.216448	1.426791	0.313611	6230.520020
1264.217319	1.390646	0.313611	7441.772461
1264.218194	1.354936	0.313611	8627.341797
1264.219309	1.315737	0.313611	10094.388672
1264.220216	1.283624	0.313611	11258.635742
1264.221088	0.998767	0.313611	12129.560547
1264.222104	0.110995	0.313611	12242.331055
1264.223072	0.089769	0.313611	12329.227539
1264.223950	0.089916	0.313611	12408.173828
1264.224808	0.089894	0.313611	12485.302734
1264.225912	0.089857	0.313611	12584.504883
1264.226820	0.089901	0.313611	12666.134766
1264.227681	0.089941	0.313611	12743.574219
1264.228775	0.090004	0.313611	12842.038086
1264.229750	0.089868	0.313611	12929.659180
1264.230609	0.089974	0.313611	13006.947266
1265.177872	1.096260	0.364046	556.900024
1265.178926	1.532201	0.364046	2171.839844
1265.179866	1.504995	0.364046	3586.535156
1265.180727	1.466272	0.364046	4848.995117
1265.181791	1.422180	0.364046	6362.194824
1265.182814	1.380941	0.364046	7774.897461
1265.183698	1.346785	0.364046	8965.455078
1265.184684	1.310713	0.364046	10257.818359
1265.185765	1.273348	0.364046	11634.307617
1265.186671	0.568557	0.364046	12149.419922
1265.187535	0.092388	0.364046	12229.243164
1265.188609	0.089875	0.364046	12325.769531
1265.189591	0.089835	0.364046	12413.987305
1265.190483	0.089821	0.364046	12494.107422
1265.191468	0.089897	0.364046	12582.656250
1265.192526	0.089916	0.364046	12677.787109
1265.193426	0.089799	0.364046	12758.605469
1265.194289	0.089879	0.364046	12836.170898
1265.195389	0.089930	0.364046	12935.094727
1265.196366	0.089799	0.364046	13022.828125
1266.246211	1.073324	0.315283	464.749268
1266.247097	1.528103	0.315283	1818.648560
1266.248122	1.512019	0.315283	3368.468018
1266.249165	1.466700	0.315283	4898.236328
1266.250052	1.428684	0.315283	6165.479004
1266.250974	1.391451	0.315283	7448.397461
1266.251845	1.357017	0.315283	8630.359375
1266.252835	1.320135	0.315283	9937.292969
1266.253743	1.287459	0.315283	11106.305664
1266.254640	1.099010	0.315283	12092.118164
1266.255652	0.144214	0.315283	12238.062500
1266.256580	0.089879	0.315283	12321.470703
1266.257507	0.089923	0.315283	12404.829102
1266.258374	0.089872	0.315283	12482.748047
1266.259412	0.089843	0.315283	12576.004883
1266.260297	0.089846	0.315283	12655.518555
1266.261174	0.089890	0.315283	12734.352539
1266.262175	0.089919	0.315283	12824.362305
1266.263116	0.089813	0.315283	12908.876953
1266.263993	0.089930	0.315283	12987.746094
1267.212740	1.072020	0.366036	462.040680
1267.213631	1.528440	0.366036	1823.880737
1267.214644	1.512008	0.366036	3355.544922
1267.215693	1.466719	0.366036	4894.132812
1267.216591	1.428043	0.366036	6176.515625
1267.217480	1.390543	0.366036	7412.708496
1267.218575	1.349377	0.366036	8890.276367
1267.219539	1.314086	0.366036	10157.054687
1267.220405	1.283313	0.366036	11268.403320
1267.221447	0.780454	0.366036	12081.636719
1267.222470	0.094167	0.366036	12177.969727
1267.223354	0.089817	0.366036	12257.368164
1267.224292	0.089930	0.366036	12341.722656
1267.225350	0.089901	0.366036	12436.837891
1267.226286	0.089872	0.366036	12520.958008
1267.227146	0.089857	0.366036	12598.235352
1267.228185	0.089919	0.366036	12691.662109
1267.229200	0.089824	0.366036	12782.833984
1267.230092	0.089883	0.366036	12863.009766
1267.231052	0.089868	0.366036	12949.283203
1268.281639	1.148353	0.313204	597.143677
1268.282642	1.533640	0.313204	2135.384766
1268.283532	1.508485	0.313204	3477.936523
1268.284529	1.465188	0.313204	4938.729004
1268.285585	1.421378	0.313204	6439.704590
1268.286470	1.384490	0.313204	7664.978027
1268.287342	1.349293	0.313204	8841.561523
1268.288450	1.310519	0.313204	10293.616211
1268.289409	1.276890	0.313204	11518.153320
1268.290272	0.762426	0.313204	12176.126953
1268.291297	0.094409	0.313204	12272.896484
1268.292335	0.089864	0.313204	12366.175781
1268.293221	0.089791	0.313204	12445.730469
1268.294137	0.089791	0.313204	12527.979492
1268.295014	0.089817	0.313204	12606.749023
1268.295958	0.089861	0.313204	12691.578125
1268.296913	0.089835	0.313204	12777.371094
1268.297804	0.089824	0.313204	12857.404297
1268.298796	0.089824	0.313204	12946.509766
1268.299700	0.089843	0.313204	13027.727539
1269.247160	1.052076	0.367107	443.976227
1269.248154	1.527707	0.367107	1962.517456
1269.249158	1.507965	0.367107	3476.514404
1269.250052	1.468894	0.367107	4789.705566
1269.251048	1.427505	0.367107	6211.500488
1269.252091	1.385087	0.367107	7656.145996
1269.252990	1.349773	0.367107	8869.591797
1269.253856	1.316448	0.367107	10009.635742
1269.254962	1.279021	0.367107	11424.232422
1269.255934	0.730042	0.367107	12133.833008
1269.256792	0.096973	0.367107	12217.035156
1269.257896	0.089919	0.367107	12316.306641
1269.258921	0.089875	0.367107	12408.428711
1269.259804	0.089788	0.367107	12487.710937
1269.260742	0.089832	0.367107	12571.972656
1269.261803	0.089875	0.367107	12667.330078
1269.262742	0.089821	0.367107	12751.671875
1269.263606	0.089879	0.367107	12829.327148
1269.264641	0.089890	0.367107	12922.363281
1269.265661	0.089846	0.367107	13014.006836
1270.315510	1.116295	0.316157	535.821716
1270.316394	1.530575	0.316157	1888.850098
1270.317345	1.512623	0.316157	3327.354980
1270.318412	1.465873	0.316157	4891.441406
1270.319353	1.426399	0.316157	6233.682617
1270.320221	1.390477	0.316157	7440.617187
1270.321292	1.349202	0.316157	8885.612305
1270.322298	1.312302	0.316157	10205.788086
1270.323205	1.280592	0.316157	11367.285156
1270.324180	0.767358	0.316157	12115.459961
1270.325218	0.093904	0.316157	12212.931641
1270.326127	0.089810	0.316157	12294.568359
1270.326987	0.089839	0.316157	12371.830078
1270.328055	0.089879	0.316157	12467.821289
1270.329051	0.089780	0.316157	12557.242187
1270.329929	0.089894	0.316157	12636.168945
1270.330851	0.089864	0.316157	12719.024414
1270.331709	0.089817	0.316157	12796.086914
1270.332687	0.089791	0.316157	12883.902344
1270.333613	0.089806	0.316157	12967.062500
1271.282178	1.120170	0.368187	539.921814
1271.283065	1.530476	0.368187	1897.454102
1271.283939	1.515216	0.368187	3221.752930
1271.284916	1.473080	0.368187	4660.952148
1271.285864	1.432156	0.368187	6018.635742
1271.286762	1.395436	0.368187	7271.737305
1271.287725	1.358236	0.368187	8579.718750
1271.288770	1.319242	0.368187	9958.326172
1271.289670	1.287191	0.368187	11116.797852
1271.290537	1.093909	0.368187	12065.216797
1271.291589	0.124479	0.368187	12196.167969
1271.292536	0.089722	0.368187	12281.134766
1271.293414	0.089821	0.368187	12359.997070
1271.294341	0.089908	0.368187	12443.341797
1271.295386	0.089854	0.368187	12537.238281
1271.296271	0.089854	0.368187	12616.758789
1271.297207	0.089835	0.368187	12700.844727
1271.298278	0.089901	0.368187	12797.128906
1271.299219	0.089806	0.368187	12881.636719
1271.300078	0.089857	0.368187	12958.824219
1272.351005	1.137843	0.312632	576.886414
1272.352026	1.533062	0.312632	2142.142090
1272.352918	1.507701	0.312632	3487.011719
1272.353876	1.466462	0.312632	4891.882812
1272.354924	1.421741	0.312632	6381.867187
1272.355860	1.383852	0.312632	7677.153320
1272.356725	1.349934	0.312632	8844.846680
1272.357804	1.310753	0.312632	10259.149414
1272.358816	1.275081	0.312632	11549.531250
1272.359721	0.677362	0.312632	12162.543945
1272.360715	0.094244	0.312632	12256.222656
1272.361768	0.089813	0.312632	12350.795898
1272.362664	0.089843	0.312632	12431.294922
1272.363522	0.089839	0.312632	12508.376953
1272.364624	0.089934	0.312632	12607.484375
1272.365580	0.089751	0.312632	12693.286133
1272.366452	0.089791	0.312632	12771.583984
1272.367459	0.089905	0.312632	12862.118164
1272.368507	0.089824	0.312632	12956.253906
1272.369379	0.089916	0.312632	13034.660156
1273.316158	1.057892	0.369303	448.546143
1273.317132	1.526320	0.369303	1935.181396
1273.318180	1.506980	0.369303	3514.496582
1273.319117	1.466045	0.369303	4888.180664
1273.319982	1.428468	0.369303	6123.805664
1273.321063	1.385493	0.369303	7621.523926
1273.322053	1.346931	0.369303	8954.985352
1273.322951	1.314225	0.369303	10135.159180
1273.323947	1.279702	0.369303	11409.742187
1273.324999	0.643224	0.369303	12086.414062
1273.325903	0.093076	0.369303	12170.554687
1273.326763	0.089821	0.369303	12247.800781
1273.327851	0.089901	0.369303	12345.613281
1273.328806	0.089795	0.369303	12431.367187
1273.329675	0.089850	0.369303	12509.446289
1273.330662	0.089923	0.369303	12598.200195
1273.331734	0.089824	0.369303	12694.492187
1273.332606	0.089835	0.369303	12772.828125
1273.333473	0.089839	0.369303	12850.718750
1273.334577	0.089886	0.369303	12949.953125
1274.385040	1.125289	0.312076	554.767639
1274.385921	1.530670	0.312076	1903.288086
1274.386783	1.515461	0.312076	3209.615723
1274.387830	1.470304	0.312076	4749.023926
1274.388779	1.429735	0.312076	6105.842773
1274.389661	1.393641	0.312076	7335.034180
1274.390550	1.357811	0.312076	8542.127930
1274.391648	1.318634	0.312076	9989.988281
1274.392537	1.286814	0.312076	11133.965820
1274.393427	0.996764	0.312076	12021.085937
1274.394529	0.108615	0.312076	12140.779297
1274.395493	0.089736	0.312076	12227.285156
1274.396362	0.089890	0.312076	12305.399414
1274.397403	0.089974	0.312076	12399.062500
1274.398432	0.089839	0.312076	12491.506836
1274.399326	0.089930	0.312076	12571.904297
1274.400265	0.089868	0.312076	12656.290039
1274.401302	0.089875	0.312076	12749.491211
1274.402237	0.089817	0.312076	12833.469727
1274.403098	0.089806	0.312076	12910.792969
1275.352008	1.057976	0.365697	458.103607
1275.352882	1.527477	0.365697	1793.118408
1275.353893	1.512125	0.365697	3321.876953
1275.354935	1.467286	0.365697	4850.789062
1275.355828	1.429043	0.365697	6126.924316
1275.356745	1.391104	0.365697	7402.566406
1275.357823	1.350004	0.365697	8857.870117
1275.358774	1.314899	0.365697	10108.338867
1275.359646	1.283957	0.365697	11227.950195
1275.360711	0.783699	0.365697	12062.589844
1275.361729	0.093893	0.365697	12158.172852
1275.362627	0.089813	0.365697	12238.825195
1275.363586	0.089919	0.365697	12325.057617
1275.364641	0.089905	0.365697	12419.907227
1275.365558	0.089835	0.365697	12502.286133
1275.366416	0.089758	0.365697	12579.298828
1275.367487	0.089916	0.365697	12675.598633
1275.368485	0.089806	0.365697	12765.224609
1275.369363	0.089828	0.365697	12844.093750
1275.370346	0.089978	0.365697	12932.541992
1276.418303	1.120294	0.313361	541.102112
1276.419176	1.530300	0.313361	1877.054199
1276.420158	1.511492	0.313361	3361.338867
1276.421219	1.464921	0.313361	4915.619629
1276.422142	1.425915	0.313361	6231.739746
1276.423018	1.389554	0.313361	7448.989258
1276.424094	1.348451	0.313361	8899.922852
1276.425103	1.311412	0.313361	10223.137695
1276.426002	1.279633	0.313361	11373.527344
1276.426930	0.822275	0.313361	12136.598633
1276.427794	0.102235	0.313361	12224.929687
1276.428799	0.089740	0.313361	12315.118164
1276.429720	0.089883	0.313361	12397.900391
1276.430583	0.089941	0.313361	12475.519531
1276.431613	0.089835	0.313361	12568.049805
1276.432492	0.089802	0.313361	12646.986328
1276.433362	0.089788	0.313361	12725.101562
1276.434321	0.089912	0.313361	12811.327148
1276.435285	0.089857	0.313361	12897.949219
1276.436197	0.089883	0.313361	12979.921875
1277.386683	1.064513	0.368473	451.353485
1277.387771	1.531377	0.368473	2117.491699
1277.388702	1.507357	0.368473	3520.841309
1277.389562	1.468271	0.368473	4783.554687
1277.390634	1.424165	0.368473	6310.259766
1277.391645	1.383248	0.368473	7708.723633
1277.392523	1.349191	0.368473	8893.313477
1277.393510	1.313148	0.368473	10189.390625
1277.394570	1.275967	0.368473	11541.915039
1277.395490	0.673883	0.368473	12161.887695
1277.396354	0.095043	0.368473	12244.004883
1277.397442	0.089894	0.368473	12341.809570
1277.398409	0.089813	0.368473	12428.659180
1277.399294	0.089810	0.368473	12508.140625
1277.400303	0.089949	0.368473	12598.898437
1277.401351	0.089908	0.368473	12693.122070
1277.402239	0.089875	0.368473	12772.931641
1277.403121	0.089945	0.368473	12852.263672
1277.404205	0.089897	0.368473	12949.712891
1277.405175	0.089832	0.368473	13036.849609
1278.453425	1.150408	0.310892	623.520935
1278.454486	1.532622	0.310892	2249.632812
1278.455400	1.503772	0.310892	3624.080566
1278.456267	1.464327	0.310892	4893.652344
1278.457362	1.419793	0.310892	6448.325195
1278.458355	1.380092	0.310892	7818.755859
1278.459223	1.346459	0.310892	8987.482422
1278.460287	1.307743	0.310892	10378.920898
1278.461331	1.271455	0.310892	11706.320312
1278.462236	0.510707	0.310892	12168.509766
1278.463171	0.091787	0.310892	12254.331055
1278.464243	0.089850	0.310892	12350.650391
1278.465175	0.089817	0.310892	12434.359375
1278.466035	0.089857	0.310892	12511.636719
1278.467091	0.089945	0.310892	12606.619141
1278.468098	0.089835	0.310892	12697.083008
1278.468978	0.089890	0.310892	12776.186523
1278.469954	0.089912	0.310892	12863.940430
1278.470988	0.089861	0.310892	12956.856445
1278.471904	0.089832	0.310892	13039.142578
1279.422266	1.053168	0.362301	447.596283
1279.423262	1.526287	0.362301	1967.777710
1279.424326	1.505636	0.362301	3569.774414
1279.425238	1.465151	0.362301	4905.992187
1279.426145	1.426864	0.362301	6200.157715
1279.427022	1.389844	0.362301	7419.050781
1279.428060	1.350623	0.362301	8820.997070
1279.428960	1.317407	0.362301	10006.664062
1279.429848	1.286257	0.362301	11148.860352
1279.430831	0.943301	0.362301	12076.125000
1279.431782	0.109069	0.362301	12179.849609
1279.432712	0.089707	0.362301	12263.277344
1279.433575	0.089795	0.362301	12340.770508
1279.434602	0.089905	0.362301	12433.102539
1279.435496	0.089908	0.362301	12513.480469
1279.436391	0.089875	0.362301	12593.918945
1279.437358	0.089949	0.362301	12680.899414
1279.438333	0.089843	0.362301	12768.496094
1279.439201	0.089930	0.362301	12846.555664
1279.440118	0.089938	0.362301	12929.028320
1280.487916	1.109326	0.308902	516.946045
1280.488800	1.530117	0.308902	1869.569702
1280.489765	1.512711	0.308902	3329.335937
1280.490825	1.466309	0.308902	4883.623047
1280.491759	1.426663	0.308902	6216.125977
1280.492627	1.390214	0.308902	7422.831543
1280.493706	1.349183	0.308902	8878.600586
1280.494695	1.312811	0.308902	10176.970703
1280.495584	1.281965	0.308902	11316.637695
1280.496586	0.778762	0.308902	12096.957031
1280.497634	0.094072	0.308902	12195.544922
1280.498544	0.089857	0.308902	12277.315430
1280.499403	0.089923	0.308902	12354.559570
1280.500509	0.089989	0.308902	12454.087891
1280.501482	0.089846	0.308902	12541.507812
1280.502337	0.089883	0.308902	12618.357422
1280.503407	0.089993	0.308902	12714.649414
1280.504461	0.089934	0.308902	12809.439453
1280.505335	0.089886	0.308902	12888.000000
1280.506267	0.089967	0.308902	12971.849609
1281.457419	1.124769	0.365267	563.509399
1281.458338	1.532106	0.365267	1971.514648
1281.459206	1.512261	0.365267	3284.156982
1281.460300	1.465605	0.365267	4887.529297
1281.461296	1.423520	0.365267	6305.355469
1281.462192	1.387427	0.365267	7548.489746
1281.463189	1.349348	0.365267	8893.790039
1281.464233	1.311112	0.365267	10262.590820
1281.465141	1.278779	0.365267	11423.722656
1281.466014	0.796479	0.365267	12119.048828
1281.467109	0.093761	0.365267	12221.716797
1281.468075	0.089832	0.365267	12308.494141
1281.468938	0.089835	0.365267	12386.021484
1281.469969	0.089993	0.365267	12478.803711
1281.471007	0.089832	0.365267	12572.048828
1281.471887	0.089839	0.365267	12651.107422
1281.472803	0.089923	0.365267	12733.476562
1281.473864	0.089971	0.365267	12828.935547
1281.474810	0.089875	0.365267	12913.958008
1281.475670	0.089883	0.365267	12991.256836
1282.521548	1.075759	0.309901	469.031036
1282.522418	1.527290	0.309901	1797.773315
1282.523504	1.508796	0.309901	3436.326172
1282.524509	1.464514	0.309901	4908.163086
1282.525411	1.426978	0.309901	6195.296875
1282.526414	1.386551	0.309901	7586.007812
1282.527477	1.345858	0.309901	9016.655273
1282.528380	1.312185	0.309901	10201.558594
1282.529260	1.280270	0.309901	11328.196289
1282.530370	0.637042	0.309901	12035.313477
1282.531330	0.091846	0.309901	12123.485352
1282.532195	0.089861	0.309901	12201.214844
1282.533235	0.089938	0.309901	12294.750000
1282.534264	0.089824	0.309901	12387.178711
1282.535155	0.089850	0.309901	12467.235352
1282.536078	0.089894	0.309901	12550.207031
1282.537132	0.089850	0.309901	12644.909180
1282.538071	0.089854	0.309901	12729.281250
1282.538932	0.089868	0.309901	12806.658203
1282.539987	0.089886	0.309901	12901.488281
1283.491900	1.055702	0.361951	448.673279
1283.492888	1.526755	0.361951	1957.107666
1283.493958	1.505544	0.361951	3568.040039
1283.494873	1.465203	0.361951	4908.700195
1283.495738	1.426919	0.361951	6142.985352
1283.496866	1.382919	0.361951	7702.917480
1283.497838	1.345821	0.361951	9011.055664
1283.498715	1.313375	0.361951	10162.885742
1283.499775	1.276095	0.361951	11515.546875
1283.500825	0.533090	0.361951	12075.291016
1283.501723	0.091271	0.361951	12157.251953
1283.502631	0.089934	0.361951	12238.912109
1283.503709	0.089949	0.361951	12335.876953
1283.504656	0.089850	0.361951	12420.964844
1283.505518	0.089883	0.361951	12498.443359
1283.506579	0.089941	0.361951	12593.871094
1283.507592	0.089905	0.361951	12684.944336
1283.508475	0.089938	0.361951	12764.359375
1283.509449	0.090004	0.361951	12852.022461
1283.510483	0.089956	0.361951	12945.037109
1284.556954	1.134375	0.309196	575.128113
1284.557892	1.532659	0.309196	2012.761963
1284.558777	1.511737	0.309196	3350.649170
1284.559730	1.470564	0.309196	4752.096680
1284.560766	1.426531	0.309196	6229.982422
1284.561665	1.389738	0.309196	7479.356445
1284.562531	1.355380	0.309196	8653.115234
1284.563600	1.316558	0.309196	10060.515625
1284.564545	1.283218	0.309196	11273.156250
1284.565415	0.974659	0.309196	12121.110352
1284.566486	0.103916	0.309196	12232.404297
1284.567498	0.089828	0.309196	12323.310547
1284.568376	0.089908	0.309196	12402.250000
1284.569320	0.089905	0.309196	12487.120117
1284.570384	0.089949	0.309196	12582.825195
1284.571298	0.089879	0.309196	12664.974609
1284.572167	0.089978	0.309196	12743.165039
1284.573204	0.089982	0.309196	12836.475586
1284.574213	0.089868	0.309196	12927.152344
1284.575103	0.089890	0.309196	13007.154297
1285.526425	1.137887	0.364304	580.322327
1285.527427	1.533003	0.364304	2116.391357
1285.528326	1.508207	0.364304	3472.269043
1285.529297	1.465880	0.364304	4895.638672
1285.530354	1.421444	0.364304	6398.104980
1285.531287	1.383560	0.364304	7688.965820
1285.532154	1.348938	0.364304	8858.495117
1285.533248	1.309728	0.364304	10291.336914
1285.534238	1.274740	0.364304	11553.329102
1285.535140	0.673770	0.364304	12161.069336
1285.536147	0.093772	0.364304	12255.498047
1285.537192	0.089894	0.364304	12349.437500
1285.538076	0.089872	0.364304	12428.883789
1285.538945	0.089901	0.364304	12507.007812
1285.540038	0.089963	0.364304	12605.337891
1285.541007	0.089835	0.364304	12692.388672
1285.541867	0.089894	0.364304	12769.697266
1285.542916	0.089993	0.364304	12864.099609
1285.543946	0.089908	0.364304	12956.705078
1285.544831	0.089934	0.364304	13036.296875
1286.590800	1.079696	0.309039	477.225647
1286.591675	1.528224	0.309039	1814.421631
1286.592665	1.512477	0.309039	3311.773682
1286.593717	1.466902	0.309039	4854.954590
1286.594626	1.428336	0.309039	6153.312012
1286.595509	1.392213	0.309039	7382.636230
1286.596382	1.356431	0.309039	8566.799805
1286.597449	1.318249	0.309039	9973.372070
1286.598349	1.286510	0.309039	11131.231445
1286.599236	1.089349	0.309039	12097.484375
1286.600251	0.136729	0.309039	12236.263672
1286.601166	0.089681	0.309039	12318.322266
1286.602090	0.089857	0.309039	12401.350586
1286.602954	0.089897	0.309039	12479.022461
1286.603992	0.089835	0.309039	12572.271484
1286.604871	0.089828	0.309039	12651.230469
1286.605737	0.089864	0.309039	12729.052734
1286.606704	0.089938	0.309039	12816.022461
1286.607645	0.089861	0.309039	12900.581055
1286.608523	0.089886	0.309039	12979.500977
1287.561921	1.058639	0.357327	453.097473
1287.562902	1.526697	0.357327	1950.787109
1287.563919	1.507511	0.357327	3483.925781
1287.564817	1.468202	0.357327	4802.371094
1287.565787	1.427725	0.357327	6187.263672
1287.566836	1.384893	0.357327	7640.016113
1287.567765	1.348619	0.357327	8892.883789
1287.568636	1.315774	0.357327	10038.922852
1287.569725	1.278593	0.357327	11431.310547
1287.570723	0.670188	0.357327	12100.158203
1287.571617	0.094014	0.357327	12184.206055
1287.572605	0.089843	0.357327	12272.970703
1287.573654	0.089868	0.357327	12367.242187
1287.574537	0.089905	0.357327	12446.627930
1287.575407	0.089875	0.357327	12524.819336
1287.576503	0.089916	0.357327	12623.367187
1287.577466	0.089799	0.357327	12709.842773
1287.578327	0.089872	0.357327	12787.222656
1287.579372	0.089886	0.357327	12881.154297
1287.580412	0.089868	0.357327	12974.617187
1288.624955	1.057859	0.308052	451.705780
1288.625983	1.530472	0.308052	2025.031494
1288.627022	1.504838	0.308052	3588.557617
1288.627917	1.465569	0.308052	4900.241699
1288.628877	1.425634	0.308052	6268.849609
1288.629926	1.382563	0.308052	7719.158691
1288.630873	1.346221	0.308052	8994.029297
1288.631742	1.313712	0.308052	10135.645508
1288.632816	1.276490	0.308052	11506.595703
1288.633834	0.572402	0.308052	12089.300781
1288.634727	0.091934	0.308052	12171.397461
1288.635696	0.089905	0.308052	12258.515625
1288.636744	0.089894	0.308052	12352.724609
1288.637662	0.089843	0.308052	12435.200195
1288.638525	0.089883	0.308052	12512.769531
1288.639611	0.089974	0.308052	12610.481445
1288.640593	0.089813	0.308052	12698.677734
1288.641473	0.089861	0.308052	12777.754883
1288.642487	0.089978	0.308052	12868.992187
1288.643556	0.089843	0.308052	12965.034180
1289.596065	1.145863	0.359808	586.681824
1289.597067	1.533105	0.359808	2122.853516
1289.597961	1.508287	0.359808	3471.262207
1289.598950	1.465488	0.359808	4920.629883
1289.599997	1.421484	0.359808	6408.923828
1289.600910	1.383988	0.359808	7672.504883
1289.601772	1.349484	0.359808	8835.759766
1289.602867	1.310797	0.359808	10271.083008
1289.603865	1.275645	0.359808	11544.175781
1289.604758	0.699254	0.359808	12168.609375
1289.605627	0.095629	0.359808	12251.710937
1289.606625	0.089791	0.359808	12341.322266
1289.607527	0.089784	0.359808	12422.307617
1289.608445	0.089817	0.359808	12504.759766
1289.609322	0.089897	0.359808	12583.599609
1289.610360	0.089850	0.359808	12676.863281
1289.611250	0.089835	0.359808	12756.816406
1289.612137	0.089806	0.359808	12836.474609
1289.613108	0.089835	0.359808	12923.705078
1289.614066	0.089806	0.359808	13009.739258
1290.659740	1.132229	0.309458	574.040100
1290.660654	1.532219	0.309458	1974.488525
1290.661527	1.512279	0.309458	3294.708008
1290.662577	1.466935	0.309458	4834.989258
1290.663594	1.423879	0.309458	6283.074707
1290.664492	1.387504	0.309458	7529.053223
1290.665468	1.350333	0.309458	8846.978516
1290.666526	1.311193	0.309458	10234.220703
1290.667448	1.278776	0.309458	11413.251953
1290.668321	0.816105	0.309458	12125.710937
1290.669415	0.093754	0.309458	12228.277344
1290.670411	0.089758	0.309458	12317.676758
1290.671309	0.089806	0.309458	12398.322266
1290.672291	0.089857	0.309458	12486.562500
1290.673347	0.089886	0.309458	12581.482422
1290.674243	0.089857	0.309458	12661.994141
1290.675121	0.089813	0.309458	12740.850586
1290.676208	0.089905	0.309458	12838.577148
1290.677164	0.089810	0.309458	12924.435547
1290.678023	0.089861	0.309458	13001.625977
1291.631695	1.078656	0.356706	481.080597
1291.632799	1.531897	0.356706	2172.294922
1291.633764	1.503948	0.356706	3623.604492
1291.634635	1.465345	0.356706	4899.920410
1291.635678	1.421777	0.356706	6382.833984
1291.636697	1.380685	0.356706	7789.751953
1291.637596	1.345920	0.356706	8999.734375
1291.638540	1.311603	0.356706	10237.887695
1291.639607	1.274268	0.356706	11597.531250
1291.640545	0.590625	0.356706	12151.537109
1291.641404	0.093029	0.356706	12231.448242
1291.642462	0.089919	0.356706	12326.583008
1291.643478	0.089784	0.356706	12417.803711
1291.644356	0.089832	0.356706	12496.675781
1291.645324	0.089963	0.356706	12583.760742
1291.646366	0.089927	0.356706	12677.464844
1291.647271	0.089843	0.356706	12758.772461
1291.648140	0.089890	0.356706	12836.886719
1291.649199	0.089912	0.356706	12932.103516
1291.650207	0.089846	0.356706	13022.668945
1292.693590	1.088221	0.306300	483.170319
1292.694464	1.528279	0.306300	1818.885986
1292.695479	1.511634	0.306300	3353.194824
1292.696536	1.466045	0.306300	4902.804199
1292.697421	1.427838	0.306300	6166.440918
1292.698339	1.390027	0.306300	7442.485352
1292.699419	1.349033	0.306300	8899.441406
1292.700356	1.314053	0.306300	10130.708984
1292.701264	1.282247	0.306300	11294.989258
1292.702150	0.944231	0.306300	12131.578125
1292.703173	0.102883	0.306300	12236.828125
1292.704063	0.089751	0.306300	12316.706055
1292.704940	0.089791	0.306300	12395.453125
1292.705834	0.089901	0.306300	12475.825195
1292.706876	0.089806	0.306300	12569.403320
1292.707765	0.089857	0.306300	12649.286133
1292.708638	0.089802	0.306300	12727.683594
1292.709661	0.089846	0.306300	12819.596680
1292.710561	0.089832	0.306300	12900.445312
1292.711481	0.089864	0.306300	12983.121094
1293.665961	1.152239	0.355538	600.316406
1293.666918	1.532662	0.355538	2067.074219
1293.667796	1.510364	0.355538	3393.173584
1293.668728	1.469095	0.355538	4762.370605
1293.669804	1.424630	0.355538	6295.272461
1293.670689	1.388002	0.355538	7523.653809
1293.671601	1.352029	0.355538	8756.704102
1293.672688	1.312211	0.355538	10183.077148
1293.673636	1.279222	0.355538	11395.780273
1293.674514	0.855798	0.355538	12147.170898
1293.675548	0.096705	0.355538	12247.164062
1293.676561	0.089846	0.355538	12338.178711
1293.677444	0.089908	0.355538	12417.567383
1293.678400	0.089846	0.355538	12503.459961
1293.679456	0.089989	0.355538	12598.488281
1293.680392	0.089930	0.355538	12682.663086
1293.681253	0.089930	0.355538	12760.092773
1293.682340	0.089978	0.355538	12857.898437
1293.683335	0.089916	0.355538	12947.364258
1293.684224	0.089923	0.355538	13027.305664
1294.727867	1.068413	0.305240	455.143951
1294.728953	1.531044	0.305240	2117.857422
1294.729950	1.503981	0.305240	3617.326172
1294.730840	1.465228	0.305240	4921.379395
1294.731842	1.423488	0.305240	6347.713867
1294.732897	1.381186	0.305240	7804.865723
1294.733785	1.346038	0.305240	9000.147461
1294.734653	1.312485	0.305240	10139.384766
1294.735779	1.274846	0.305240	11574.861328
1294.736754	0.578108	0.305240	12138.516602
1294.737619	0.092494	0.305240	12218.523437
1294.738633	0.089938	0.305240	12309.720703
1294.739673	0.089780	0.305240	12403.091797
1294.740568	0.089879	0.305240	12483.533203
1294.741491	0.089864	0.305240	12566.478516
1294.742552	0.089963	0.305240	12661.929687
1294.743503	0.089912	0.305240	12747.436523
1294.744371	0.089890	0.305240	12825.460937
1294.745422	0.089941	0.305240	12919.989258
1294.746437	0.089886	0.305240	13011.223633
1295.700414	1.053453	0.356062	446.664215
1295.701307	1.525463	0.356062	1808.902344
1295.702392	1.508639	0.356062	3445.775391
1295.703356	1.466627	0.356062	4859.604004
1295.704278	1.427966	0.356062	6176.188965
1295.705141	1.391971	0.356062	7377.460449
1295.706177	1.352728	0.356062	8778.886719
1295.707077	1.318696	0.356062	9965.712891
1295.707956	1.287546	0.356062	11097.465820
1295.708847	1.025925	0.356062	12011.565430
1295.709883	0.115770	0.356062	12131.503906
1295.710775	0.089718	0.356062	12211.532227
1295.711653	0.089821	0.356062	12290.394531
1295.712653	0.089868	0.356062	12380.262695
1295.713574	0.089806	0.356062	12462.973633
1295.714453	0.089854	0.356062	12541.955078
1295.715447	0.089875	0.356062	12631.291016
1295.716436	0.089839	0.356062	12720.141602
1295.717321	0.089912	0.356062	12799.713867
1295.718176	0.089839	0.356062	12876.526367
1296.762780	1.143644	0.301901	585.545593
1296.763675	1.531791	0.301901	1956.498291
1296.764591	1.511290	0.301901	3340.840332
1296.765663	1.464921	0.301901	4911.235352
1296.766619	1.425037	0.301901	6273.570312
1296.767483	1.389419	0.301901	7474.028320
1296.768531	1.349048	0.301901	8887.830078
1296.769557	1.311515	0.301901	10233.444336
1296.770447	1.280050	0.301901	11372.688477
1296.771424	0.763374	0.301901	12118.504883
1296.772456	0.093724	0.301901	12215.228516
1296.773387	0.089846	0.301901	12298.875000
1296.774245	0.089791	0.301901	12375.916016
1296.775291	0.089905	0.301901	12469.956055
1296.776307	0.089780	0.301901	12561.172852
1296.777202	0.089846	0.301901	12641.584961
1296.778164	0.089956	0.301901	12728.123047
1296.779231	0.089901	0.301901	12824.047852
1296.780154	0.089857	0.301901	12906.986328
1296.781019	0.089890	0.301901	12984.741211
1297.735185	1.130907	0.354317	563.191650
1297.736211	1.532919	0.354317	2135.966309
1297.737112	1.507174	0.354317	3493.930176
1297.738093	1.464975	0.354317	4931.071289
1297.739133	1.420961	0.354317	6408.870117
1297.740049	1.383541	0.354317	7676.193848
1297.740913	1.349355	0.354317	8842.037109
1297.741991	1.310878	0.354317	10255.163086
1297.742993	1.275549	0.354317	11533.263672
1297.743879	0.717634	0.354317	12169.087891
1297.744875	0.095530	0.354317	12264.235352
1297.745925	0.089854	0.354317	12358.582031
1297.746822	0.089835	0.354317	12439.164062
1297.747680	0.089872	0.354317	12516.274414
1297.748771	0.089908	0.354317	12614.364258
1297.749748	0.089839	0.354317	12702.136719
1297.750613	0.089843	0.354317	12779.850586
1297.751665	0.089967	0.354317	12874.496094
1297.752706	0.089821	0.354317	12967.999023
1297.753600	0.089788	0.354317	13048.269531
1298.797129	1.074152	0.303194	466.181763
1298.797992	1.526162	0.303194	1783.259644
1298.799107	1.508643	0.303194	3465.395996
1298.800011	1.468370	0.303194	4792.802734
1298.800889	1.431160	0.303194	6049.360840
1298.801907	1.390265	0.303194	7464.650391
1298.802898	1.351095	0.303194	8803.585937
1298.803784	1.318473	0.303194	9971.752930
1298.804766	1.283789	0.303194	11232.433594
1298.805847	0.787657	0.303194	12083.891602
1298.806723	0.098284	0.303194	12169.988281
1298.807587	0.089857	0.303194	12247.625000
1298.808695	0.089934	0.303194	12347.271484
1298.809666	0.089824	0.303194	12434.491211
1298.810538	0.089897	0.303194	12512.881836
1298.811548	0.089905	0.303194	12603.685547
1298.812604	0.089857	0.303194	12698.575195
1298.813492	0.089879	0.303194	12778.387695
1298.814414	0.089835	0.303194	12861.215820
1298.815481	0.089872	0.303194	12957.109375
1299.769539	1.067468	0.354849	459.011353
1299.770417	1.527030	0.354849	1799.743652
1299.771432	1.511642	0.354849	3334.060059
1299.772490	1.466206	0.354849	4885.306152
1299.773375	1.428190	0.354849	6149.253906
1299.774287	1.390653	0.354849	7417.529297
1299.775369	1.349290	0.354849	8877.460937
1299.776326	1.314045	0.354849	10135.001953
1299.777192	1.283177	0.354849	11246.233398
1299.778252	0.784142	0.354849	12077.423828
1299.779272	0.094160	0.354849	12173.466797
1299.780143	0.089784	0.354849	12251.668945
1299.781093	0.089952	0.354849	12337.124023
1299.782152	0.089894	0.354849	12432.321289
1299.783089	0.089868	0.354849	12516.527344
1299.783955	0.089788	0.354849	12594.283203
1299.785014	0.089952	0.354849	12689.542969
1299.786033	0.089861	0.354849	12781.111328
1299.786932	0.089747	0.354849	12861.793945
1299.787917	0.089945	0.354849	12950.389648
1300.831516	1.138066	0.302662	575.861633
1300.832534	1.532944	0.302662	2136.398926
1300.833412	1.508090	0.302662	3460.501709
1300.834291	1.469612	0.302662	4752.290527
1300.835282	1.428831	0.302662	6168.261719
1300.836249	1.388628	0.302662	7511.064941
1300.837152	1.353091	0.302662	8732.906250
1300.838033	1.320513	0.302662	9896.278320
1300.839053	1.284796	0.302662	11206.770508
1300.839957	1.007710	0.302662	12117.740234
1300.840837	0.127515	0.302662	12229.953125
1300.841756	0.089791	0.302662	12312.471680
1300.842742	0.089755	0.302662	12400.969727
1300.843639	0.089832	0.302662	12481.548828
1300.844497	0.089854	0.302662	12558.643555
1300.845591	0.089824	0.302662	12656.911133
1300.846479	0.089802	0.302662	12736.655273
1300.847348	0.089872	0.302662	12814.753906
1300.848349	0.089875	0.302662	12904.719727
1300.849347	0.089729	0.302662	12994.269531
1301.804311	1.112988	0.350213	574.302002
1301.805373	1.531791	0.350213	2201.063721
1301.806300	1.503732	0.350213	3595.022949
1301.807168	1.464558	0.350213	4866.259277
1301.808267	1.419617	0.350213	6426.417969
1301.809253	1.379553	0.350213	7786.657227
1301.810156	1.345063	0.350213	9001.250000
1301.811152	1.309006	0.350213	10305.020508
1301.812203	1.272554	0.350213	11642.474609
1301.813107	0.564159	0.350213	12152.474609
1301.813965	0.092538	0.350213	12231.872070
1301.815070	0.089879	0.350213	12331.188477
1301.816032	0.089670	0.350213	12417.451172
1301.816893	0.089806	0.350213	12494.774414
1301.817958	0.089875	0.350213	12590.492187
1301.818985	0.089821	0.350213	12682.738281
1301.819864	0.089777	0.350213	12761.652344
1301.820788	0.089784	0.350213	12844.612305
1301.821850	0.089795	0.350213	12939.974609
1301.822796	0.089817	0.350213	13024.941406
1302.865884	1.079344	0.303871	490.022339
1302.866745	1.527737	0.303871	1805.403687
1302.867752	1.511364	0.303871	3327.346680
1302.868809	1.466092	0.303871	4877.006348
1302.869703	1.427736	0.303871	6153.402344
1302.870598	1.390236	0.303871	7397.663086
1302.871695	1.348715	0.303871	8877.203125
1302.872655	1.313511	0.303871	10138.173828
1302.873528	1.282610	0.303871	11257.892578
1302.874546	0.804108	0.303871	12076.474609
1302.875576	0.094530	0.303871	12173.840820
1302.876455	0.089762	0.303871	12252.741211
1302.877334	0.089854	0.303871	12331.722656
1302.878269	0.089916	0.303871	12415.793945
1302.879265	0.089919	0.303871	12505.353516
1302.880191	0.089835	0.303871	12588.541016
1302.881055	0.089883	0.303871	12666.200195
1302.882140	0.089952	0.303871	12763.798828
1302.883020	0.089890	0.303871	12842.902344
1302.883885	0.089835	0.303871	12920.609375
1303.837845	1.126080	0.354736	567.544434
1303.838870	1.532571	0.354736	2138.429443
1303.839765	1.507244	0.354736	3487.412598
1303.840733	1.465463	0.354736	4905.980469
1303.841803	1.420093	0.354736	6425.479492
1303.842736	1.382238	0.354736	7715.107422
1303.843601	1.347839	0.354736	8880.988281
1303.844668	1.309790	0.354736	10278.534180
1303.845659	1.274832	0.354736	11541.892578
1303.846556	0.690201	0.354736	12161.002930
1303.847547	0.094878	0.354736	12255.027344
1303.848599	0.089854	0.354736	12349.553711
1303.849496	0.089733	0.354736	12430.043945
1303.850351	0.089879	0.354736	12506.890625
1303.851417	0.089938	0.354736	12602.764648
1303.852403	0.089857	0.354736	12691.364258
1303.853277	0.089817	0.354736	12769.864258
1303.854259	0.089934	0.354736	12858.179687
1303.855294	0.089890	0.354736	12951.215820
1303.856193	0.089850	0.354736	13031.991211
1304.901263	1.132346	0.296507	563.908386
1304.902258	1.532454	0.296507	2088.699707
1304.903162	1.508229	0.296507	3452.138672
1304.904143	1.465324	0.296507	4889.621094
1304.905202	1.421118	0.296507	6394.584961
1304.906106	1.384215	0.296507	7645.915039
1304.906973	1.349290	0.296507	8815.749023
1304.908083	1.310017	0.296507	10269.868164
1304.909057	1.275820	0.296507	11512.517578
1304.909935	0.748491	0.296507	12169.693359
1304.911023	0.092318	0.296507	12270.135742
1304.912041	0.089813	0.296507	12361.565430
1304.912933	0.089780	0.296507	12441.649414
1304.913867	0.089813	0.296507	12525.535156
1304.914910	0.089872	0.296507	12619.271484
1304.915851	0.089883	0.296507	12703.851562
1304.916717	0.089901	0.296507	12781.706055
1304.917768	0.089846	0.296507	12876.134766
1304.918779	0.089766	0.296507	12966.887695
1304.919660	0.089780	0.296507	13045.984375
1305.872962	1.059016	0.351042	456.435944
1305.873824	1.525822	0.351042	1771.694092
1305.874894	1.509811	0.351042	3387.191650
1305.875828	1.469172	0.351042	4759.398437
1305.876700	1.431969	0.351042	6008.075195
1305.877677	1.392572	0.351042	7368.618164
1305.878695	1.352216	0.351042	8745.173828
1305.879599	1.319062	0.351042	9937.606445
1305.880469	1.287466	0.351042	11057.701172
1305.881560	0.895994	0.351042	12035.230469
1305.882506	0.104473	0.351042	12134.061523
1305.883368	0.089696	0.351042	12211.379883
1305.884416	0.089872	0.351042	12305.565430
1305.885414	0.089824	0.351042	12395.209961
1305.886307	0.089886	0.351042	12475.478516
1305.887268	0.089934	0.351042	12561.905273
1305.888298	0.089875	0.351042	12654.476562
1305.889224	0.089857	0.351042	12737.684570
1305.890087	0.089832	0.351042	12815.208984
1305.891155	0.089894	0.351042	12911.215820
1306.935500	1.057592	0.298392	463.225098
1306.936365	1.526979	0.298392	1784.061646
1306.937377	1.512136	0.298392	3314.343506
1306.938435	1.466547	0.298392	4865.949707
1306.939330	1.428080	0.298392	6144.081055
1306.940254	1.390320	0.298392	7428.736328
1306.941315	1.349311	0.298392	8860.355469
1306.942269	1.314386	0.298392	10114.279297
1306.943134	1.283551	0.298392	11224.550781
1306.944203	0.778447	0.298392	12056.710937
1306.945216	0.094153	0.298392	12152.087891
1306.946103	0.089835	0.298392	12231.771484
1306.947076	0.089868	0.298392	12319.212891
1306.948114	0.089875	0.298392	12412.503906
1306.949044	0.089828	0.298392	12496.043945
1306.949899	0.089854	0.298392	12572.869141
1306.950951	0.089901	0.298392	12667.445312
1306.951959	0.089835	0.298392	12757.999023
1306.952830	0.089828	0.298392	12836.239258
1306.953799	0.089886	0.298392	12923.338867
1307.907120	1.146702	0.348368	620.365601
1307.908185	1.531952	0.348368	2251.894531
1307.909098	1.503219	0.348368	3624.333496
1307.909960	1.463789	0.348368	4886.119629
1307.911078	1.418525	0.348368	6472.031250
1307.912049	1.379363	0.348368	7811.392578
1307.912956	1.344327	0.348368	9030.697266
1307.913849	1.311929	0.348368	10202.250000
1307.914877	1.276545	0.348368	11514.539062
1307.915794	0.683485	0.348368	12141.294922
1307.916723	0.093871	0.348368	12228.500977
1307.917583	0.089832	0.348368	12305.755859
1307.918633	0.089879	0.348368	12400.128906
1307.919511	0.089751	0.348368	12478.930664
1307.920379	0.089854	0.348368	12556.923828
1307.921370	0.089832	0.348368	12645.947266
1307.922298	0.089828	0.348368	12729.307617
1307.923219	0.089857	0.348368	12812.066406
1307.924098	0.089802	0.348368	12891.002930
1307.925143	0.089813	0.348368	12984.857422
1308.970569	1.184542	0.294851	657.420898
1308.971611	1.532468	0.294851	2254.252930
1308.972499	1.504680	0.294851	3590.408936
1308.973454	1.463189	0.294851	4987.753906
1308.974528	1.417991	0.294851	6510.675781
1308.975464	1.380319	0.294851	7802.654297
1308.976326	1.346466	0.294851	8963.308594
1308.977365	1.308581	0.294851	10322.924805
1308.978389	1.272916	0.294851	11626.390625
1308.979288	0.607500	0.294851	12172.533203
1308.980256	0.093157	0.294851	12262.708984
1308.981316	0.089934	0.294851	12358.039062
1308.982233	0.089751	0.294851	12440.340820
1308.983102	0.089835	0.294851	12518.407227
1308.984174	0.089978	0.294851	12614.863281
1308.985176	0.089817	0.294851	12704.859375
1308.986068	0.089784	0.294851	12784.946289
1308.987031	0.089930	0.294851	12871.548828
1308.988087	0.089832	0.294851	12966.411133
1308.988995	0.089839	0.294851	13047.984375
1309.940120	1.107312	0.354003	573.587585
1309.941165	1.531589	0.354003	2174.098389
1309.942092	1.504347	0.354003	3568.627930
1309.942958	1.465664	0.354003	4837.893066
1309.944026	1.421719	0.354003	6356.288574
1309.945038	1.380718	0.354003	7753.575195
1309.945922	1.346580	0.354003	8943.951172
1309.946925	1.310874	0.354003	10258.757812
1309.947979	1.273689	0.354003	11601.225586
1309.948892	0.602974	0.354003	12151.740234
1309.949749	0.093113	0.354003	12231.538086
1309.950810	0.089850	0.354003	12326.869141
1309.951806	0.089791	0.354003	12416.300781
1309.952701	0.089769	0.354003	12496.644531
1309.953684	0.089945	0.354003	12585.060547
1309.954744	0.089839	0.354003	12680.290039
1309.955631	0.089769	0.354003	12759.915039
1309.956512	0.089872	0.354003	12839.091797
1309.957618	0.089864	0.354003	12938.482422
1309.958585	0.089824	0.354003	13025.342773
1311.005044	1.121624	0.292382	536.136047
1311.005924	1.529755	0.292382	1882.320068
1311.006933	1.510356	0.292382	3406.269531
1311.007981	1.464877	0.292382	4941.459961
1311.008855	1.426996	0.292382	6188.654297
1311.009769	1.390042	0.292382	7459.152344
1311.010652	1.355665	0.292382	8656.205078
1311.011629	1.318953	0.292382	9944.822266
1311.012563	1.286257	0.292382	11146.186523
1311.013452	1.077253	0.292382	12103.865234
1311.014432	0.143375	0.292382	12244.373047
1311.015370	0.089795	0.292382	12328.600586
1311.016285	0.089854	0.292382	12410.816406
1311.017151	0.089890	0.292382	12488.661133
1311.018190	0.089795	0.292382	12581.958008
1311.019073	0.089864	0.292382	12661.308594
1311.019942	0.089802	0.292382	12739.346680
1311.020880	0.089894	0.292382	12823.666992
1311.021841	0.089813	0.292382	12909.977539
1311.022751	0.089886	0.292382	12991.774414
1311.975366	1.066604	0.349524	463.972748
1311.976238	1.526982	0.349524	1795.501465
1311.977241	1.511605	0.349524	3311.641602
1311.978243	1.467810	0.349524	4782.387207
1311.979142	1.430101	0.349524	6068.048340
1311.980008	1.393396	0.349524	7274.729492
1311.981112	1.352172	0.349524	8767.527344
1311.982022	1.318041	0.349524	9966.944336
1311.982905	1.287059	0.349524	11103.417969
1311.983894	0.964083	0.349524	12056.896484
1311.984903	0.104374	0.349524	12162.209961
1311.985802	0.089714	0.349524	12242.863281
1311.986797	0.089886	0.349524	12332.300781
1311.987831	0.089868	0.349524	12425.224609
1311.988731	0.089795	0.349524	12506.040039
1311.989591	0.089824	0.349524	12583.289062
1311.990696	0.089919	0.349524	12682.650391
1311.991657	0.089806	0.349524	12768.954102
1311.992517	0.089810	0.349524	12846.190430
1311.993609	0.089864	0.349524	12944.322266
1313.038905	1.049301	0.296318	441.755524
1313.039870	1.525920	0.296318	1914.268677
1313.040924	1.506844	0.296318	3502.482666
1313.041853	1.465953	0.296318	4864.353516
1313.042718	1.428442	0.296318	6099.956055
1313.043795	1.385552	0.296318	7592.195312
1313.044780	1.347400	0.296318	8919.383789
1313.045682	1.314404	0.296318	10104.976562
1313.046684	1.279585	0.296318	11387.121094
1313.047738	0.656342	0.296318	12078.905273
1313.048631	0.093442	0.296318	12162.349609
1313.049492	0.089854	0.296318	12239.713867
1313.050595	0.089905	0.296318	12338.878906
1313.051565	0.089766	0.296318	12425.951172
1313.052425	0.089824	0.296318	12503.200195
1313.053478	0.089945	0.296318	12597.912109
1313.054518	0.089897	0.296318	12691.405273
1313.055391	0.089967	0.296318	12769.946289
1313.056283	0.089934	0.296318	12850.167969
1313.057373	0.089861	0.296318	12948.116211
1314.009770	1.116240	0.350317	599.421021
1314.010826	1.531685	0.350317	2216.879883
1314.011745	1.503717	0.350317	3598.795898
1314.012606	1.464569	0.350317	4859.790039
1314.013665	1.421027	0.350317	6364.657227
1314.014659	1.380787	0.350317	7737.160156
1314.015556	1.346422	0.350317	8944.900391
1314.016540	1.310794	0.350317	10234.720703
1314.017598	1.273846	0.350317	11582.450195
1314.018510	0.613341	0.350317	12141.817383
1314.019373	0.093409	0.350317	12222.429687
1314.020461	0.089850	0.350317	12320.186523
1314.021434	0.089722	0.350317	12407.485352
1314.022300	0.089875	0.350317	12485.317383
1314.023408	0.089927	0.350317	12584.956055
1314.024437	0.089883	0.350317	12677.445312
1314.025329	0.089864	0.350317	12757.604492
1314.026209	0.089780	0.350317	12836.611328
1314.027114	0.089872	0.350317	12917.945312
1314.028132	0.089821	0.350317	13009.382812
1315.073600	1.165214	0.294320	651.354370
1315.074588	1.533087	0.294320	2166.044434
1315.075490	1.506343	0.294320	3524.765625
1315.076356	1.466569	0.294320	4794.813965
1315.077459	1.422202	0.294320	6363.502930
1315.078374	1.384636	0.294320	7630.445312
1315.079257	1.350703	0.294320	8823.116211
1315.080257	1.314664	0.294320	10137.780273
1315.081253	1.278929	0.294320	11411.593750
1315.082151	0.830779	0.294320	12157.632812
1315.083010	0.103711	0.294320	12246.720703
1315.084114	0.089777	0.294320	12345.833984
1315.085017	0.089824	0.294320	12426.945312
1315.085875	0.089824	0.294320	12504.014648
1315.086966	0.089897	0.294320	12602.092773
1315.087961	0.089788	0.294320	12691.431641
1315.088834	0.089850	0.294320	12769.870117
1315.089837	0.089985	0.294320	12860.125000
1315.090907	0.089868	0.294320	12956.284180
1315.091790	0.089751	0.294320	13035.534180
1316.042552	1.073317	0.353500	451.866333
1316.043666	1.531505	0.353500	2157.962891
1316.044640	1.503776	0.353500	3622.640381
1316.045506	1.465558	0.353500	4891.813477
1316.046551	1.421869	0.353500	6377.666504
1316.047585	1.380282	0.353500	7804.877930
1316.048477	1.345690	0.353500	9005.233398
1316.049418	1.311456	0.353500	10239.313477
1316.050472	1.274337	0.353500	11582.464844
1316.051421	0.598726	0.353500	12150.655273
1316.052283	0.093069	0.353500	12230.880859
1316.053338	0.089839	0.353500	12325.661133
1316.054352	0.089769	0.353500	12416.687500
1316.055231	0.089813	0.353500	12495.633789
1316.056217	0.089828	0.353500	12584.204102
1316.057269	0.089843	0.353500	12678.718750
1316.058172	0.089799	0.353500	12759.806641
1316.059035	0.089813	0.353500	12837.315430
1316.060080	0.089941	0.353500	12931.304687
1316.061078	0.089810	0.353500	13020.934570
1317.108685	1.069662	0.294114	464.233246
1317.109708	1.529517	0.294114	2028.928711
1317.110752	1.504530	0.294114	3599.658203
1317.111652	1.464584	0.294114	4917.783691
1317.112564	1.425696	0.294114	6218.018066
1317.113648	1.382333	0.294114	7716.466797
1317.114593	1.346016	0.294114	8988.451172
1317.115459	1.313756	0.294114	10126.164062
1317.116521	1.277010	0.294114	11482.349609
1317.117550	0.588512	0.294114	12087.928711
1317.118433	0.092439	0.294114	12169.552734
1317.119396	0.089908	0.294114	12256.134766
1317.120453	0.089912	0.294114	12351.171875
1317.121355	0.089843	0.294114	12432.209961
1317.122268	0.089824	0.294114	12514.219727
1317.123146	0.089864	0.294114	12593.121094
1317.124171	0.089846	0.294114	12685.213867
1317.125065	0.089784	0.294114	12765.480469
1317.125940	0.089868	0.294114	12844.115234
1317.126896	0.089883	0.294114	12930.042969
1318.077769	1.056936	0.349524	460.824097
1318.078640	1.526689	0.349524	1790.570557
1318.079555	1.514879	0.349524	3176.685059
1318.080651	1.469099	0.349524	4786.817383
1318.081534	1.430793	0.349524	6050.208008
1318.082400	1.395253	0.349524	7258.497070
1318.083438	1.354644	0.349524	8664.617187
1318.084417	1.318488	0.349524	9955.416016
1318.085307	1.287045	0.349524	11100.885742
1318.086329	0.924738	0.349524	12045.967773
1318.087367	0.101719	0.349524	12151.551758
1318.088259	0.089857	0.349524	12231.704102
1318.089189	0.089868	0.349524	12315.281250
1318.090249	0.089949	0.349524	12410.626953
1318.091200	0.089835	0.349524	12496.060547
1318.092064	0.089872	0.349524	12573.709961
1318.093114	0.090026	0.349524	12668.237305
1318.094114	0.089886	0.349524	12758.124023
1318.095004	0.089916	0.349524	12838.149414
1318.095972	0.089978	0.349524	12925.248047
1319.143680	1.113860	0.290344	549.132935
1319.144588	1.530978	0.290344	1939.260864
1319.145459	1.512041	0.290344	3256.248535
1319.146559	1.465331	0.290344	4868.112305
1319.147567	1.422770	0.290344	6302.264160
1319.148461	1.386899	0.290344	7542.152344
1319.149448	1.348916	0.290344	8873.532227
1319.150510	1.310387	0.290344	10265.163086
1319.151405	1.278439	0.290344	11409.365234
1319.152312	0.776733	0.290344	12113.862305
1319.153409	0.092805	0.290344	12215.669922
1319.154373	0.089868	0.290344	12302.302734
1319.155238	0.089843	0.290344	12380.016602
1319.156277	0.089916	0.290344	12473.439453
1319.157299	0.089875	0.290344	12565.291992
1319.158196	0.089879	0.290344	12645.914062
1319.159139	0.089912	0.290344	12730.701172
1319.160176	0.089945	0.290344	12823.974609
1319.161106	0.089879	0.290344	12907.562500
1319.161970	0.089912	0.290344	12985.246094
