time (s)	coil I (A)	last det (V)	int current (uC)
2144.354012	1.205350	0.220331	682.228333
2144.355028	1.534149	0.220331	2240.923828
2144.355929	1.505716	0.220331	3597.574219
2144.356797	1.465876	0.220331	4869.955078
2144.357915	1.421085	0.220331	6458.728516
2144.358814	1.383886	0.220331	7702.841797
2144.359697	1.350062	0.220331	8894.947266
2144.360699	1.313507	0.220331	10211.081055
2144.361697	1.277835	0.220331	11486.359375
2144.362598	1.247648	0.220331	12610.490234
2144.363593	1.214480	0.220331	13818.897461
2144.364628	1.181114	0.220331	15041.350586
2144.365513	1.153286	0.220331	16062.008789
2144.366390	0.837440	0.220331	16796.443359
2144.367488	0.100426	0.220331	16906.710937
2144.368452	0.089861	0.220331	16993.335937
2144.369315	0.089982	0.220331	17070.990234
2144.370333	0.090044	0.220331	17162.654297
2144.371357	0.089949	0.220331	17254.761719
2144.372228	0.089956	0.220331	17333.113281
2144.373126	0.090015	0.220331	17413.947266
2144.374190	0.089941	0.220331	17509.644531
2144.375143	0.089927	0.220331	17595.345703
2144.376007	0.089971	0.220331	17673.080078
2145.272009	1.068962	0.194760	463.929657
2145.272874	1.527008	0.194760	1784.791626
2145.273969	1.509371	0.194760	3437.553223
2145.274948	1.466396	0.194760	4873.155273
2145.275837	1.429387	0.194760	6143.880371
2145.276848	1.388251	0.194760	7547.401855
2145.277902	1.347872	0.194760	8968.059570
2145.278800	1.314459	0.194760	10148.444336
2145.279692	1.282101	0.194760	11292.078125
2145.280800	1.245245	0.194760	12671.809570
2145.281757	1.213337	0.194760	13832.973633
2145.282629	1.184780	0.194760	14866.101562
2145.283686	1.151971	0.194760	16083.735352
2145.284709	0.712346	0.194760	16812.464844
2145.285610	0.096401	0.194760	16899.322266
2145.286551	0.089996	0.194760	16984.009766
2145.287590	0.090011	0.194760	17077.531250
2145.288523	0.090044	0.194760	17161.542969
2145.289383	0.090004	0.194760	17238.945312
2145.290440	0.090066	0.194760	17334.144531
2145.291442	0.089974	0.194760	17424.298828
2145.292323	0.090015	0.194760	17503.601562
2145.293199	0.090081	0.194760	17582.511719
2145.294164	0.090015	0.194760	17669.375000
2146.389621	1.087551	0.237069	525.287231
2146.390701	1.532161	0.237069	2180.020752
2146.391650	1.505010	0.237069	3608.274902
2146.392518	1.466495	0.237069	4881.192871
2146.393560	1.423052	0.237069	6364.012695
2146.394595	1.381205	0.237069	7793.559570
2146.395481	1.346810	0.237069	8986.833984
2146.396436	1.312236	0.237069	10240.019531
2146.397511	1.274553	0.237069	11610.164062
2146.398432	1.243063	0.237069	12755.024414
2146.399307	1.212799	0.237069	13816.223633
2146.400381	1.178686	0.237069	15082.132812
2146.401388	1.147269	0.237069	16237.432617
2146.402286	0.702799	0.237069	16868.546875
2146.403260	0.097031	0.237069	16963.054687
2146.404310	0.089919	0.237069	17057.470703
2146.405221	0.089967	0.237069	17139.431641
2146.406083	0.089930	0.237069	17216.951172
2146.407192	0.089982	0.237069	17316.740234
2146.408164	0.089908	0.237069	17404.130859
2146.409047	0.089985	0.237069	17483.587891
2146.410050	0.090026	0.237069	17573.882812
2146.411096	0.090051	0.237069	17668.076172
2146.411991	0.089945	0.237069	17748.576172
2147.311316	1.089763	0.192085	489.303650
2147.312194	1.528956	0.192085	1831.727295
2147.313184	1.512836	0.192085	3329.434570
2147.314233	1.467448	0.192085	4868.787109
2147.315144	1.428607	0.192085	6170.248047
2147.316012	1.391514	0.192085	7378.082031
2147.317124	1.349941	0.192085	8879.216797
2147.318111	1.314016	0.192085	10176.150391
2147.318983	1.282939	0.192085	11294.873047
2147.320056	1.246494	0.192085	12632.361328
2147.321091	1.211905	0.192085	13886.683594
2147.321988	1.182411	0.192085	14947.306641
2147.322915	1.153627	0.192085	16016.718750
2147.323976	0.729880	0.192085	16791.121094
2147.324920	0.096086	0.192085	16881.826172
2147.325785	0.089857	0.192085	16959.552734
2147.326849	0.089989	0.192085	17055.300781
2147.327866	0.089905	0.192085	17146.734375
2147.328750	0.089993	0.192085	17226.287109
2147.329729	0.089956	0.192085	17314.353516
2147.330763	0.089938	0.192085	17407.349609
2147.331684	0.089923	0.192085	17490.167969
2147.332540	0.090026	0.192085	17567.230469
2147.333607	0.090007	0.192085	17663.267578
2148.423686	1.095267	0.237561	547.633667
2148.424667	1.533252	0.237561	2051.753906
2148.425588	1.509401	0.237561	3441.911865
2148.426472	1.470538	0.237561	4741.867676
2148.427515	1.426999	0.237561	6230.228027
2148.428428	1.389207	0.237561	7498.573730
2148.429306	1.355006	0.237561	8688.269531
2148.430168	1.321340	0.237561	9827.264648
2148.431220	1.285617	0.237561	11179.733398
2148.432109	1.255426	0.237561	12295.806641
2148.432971	1.225151	0.237561	13351.886719
2148.434065	1.190823	0.237561	14654.646484
2148.434975	1.161489	0.237561	15711.601562
2148.435846	1.119064	0.237561	16686.306641
2148.436833	0.233584	0.237561	16916.853516
2148.437837	0.089773	0.237561	17006.986328
2148.438733	0.089993	0.237561	17087.619141
2148.439595	0.089930	0.237561	17165.138672
2148.440675	0.089916	0.237561	17262.248047
2148.441605	0.089908	0.237561	17345.863281
2148.442467	0.089971	0.237561	17423.417969
2148.443534	0.089952	0.237561	17519.396484
2148.444524	0.089832	0.237561	17608.330078
2148.445412	0.089861	0.237561	17688.126953
2149.347119	1.154714	0.200951	606.225037
2149.348061	1.532988	0.200951	2050.299805
2149.348926	1.511422	0.200951	3357.679687
2149.349998	1.465236	0.200951	4928.412109
2149.351019	1.422257	0.200951	6380.536621
2149.351902	1.386266	0.200951	7604.609375
2149.352900	1.348740	0.200951	8950.652344
2149.353947	1.309779	0.200951	10321.991211
2149.354870	1.277194	0.200951	11500.840820
2149.355733	1.246897	0.200951	12576.913086
2149.356819	1.211539	0.200951	13892.644531
2149.357818	1.179093	0.200951	15070.558594
2149.358696	1.151473	0.200951	16081.552734
2149.359685	0.736351	0.200951	16809.804687
2149.360723	0.094512	0.200951	16907.908203
2149.361627	0.089912	0.200951	16989.189453
2149.362488	0.089963	0.200951	17066.648437
2149.363593	0.090018	0.200951	17166.119141
2149.364569	0.089850	0.200951	17253.812500
2149.365434	0.089930	0.200951	17331.601562
2149.366499	0.090004	0.200951	17427.455078
2149.367536	0.089952	0.200951	17520.736328
2149.368429	0.090029	0.200951	17601.132812
2149.369337	0.090004	0.200951	17682.855469
2150.458305	1.053472	0.242656	446.671997
2150.459221	1.525763	0.242656	1844.270874
2150.460303	1.508057	0.242656	3475.988281
2150.461267	1.466257	0.242656	4889.460449
2150.462133	1.428981	0.242656	6126.958008
2150.463202	1.386423	0.242656	7609.044434
2150.464233	1.346591	0.242656	8997.378906
2150.465109	1.313804	0.242656	10148.271484
2150.466085	1.279742	0.242656	11397.299805
2150.467149	1.243451	0.242656	12720.332031
2150.468086	1.212026	0.242656	13856.000977
2150.468963	1.182825	0.242656	14893.337891
2150.470038	1.149804	0.242656	16129.376953
2150.471045	0.668562	0.242656	16802.619141
2150.471941	0.095233	0.242656	16887.947266
2150.472929	0.089989	0.242656	16976.855469
2150.473976	0.090033	0.242656	17071.119141
2150.474877	0.089938	0.242656	17152.152344
2150.475739	0.089974	0.242656	17229.710937
2150.476857	0.090022	0.242656	17330.355469
2150.477824	0.089912	0.242656	17417.300781
2150.478690	0.089960	0.242656	17495.205078
2150.479754	0.089963	0.242656	17590.925781
2150.480783	0.089908	0.242656	17683.441406
2151.383375	1.185934	0.212907	674.796326
2151.384344	1.533230	0.212907	2160.496094
2151.385278	1.506284	0.212907	3567.365479
2151.386141	1.466532	0.212907	4832.982422
2151.387250	1.422638	0.212907	6410.687988
2151.388130	1.385892	0.212907	7630.273437
2151.388999	1.352201	0.212907	8805.335937
2151.390044	1.313555	0.212907	10178.000000
2151.391032	1.279058	0.212907	11441.708984
2151.391901	1.249208	0.212907	12527.270508
2151.392958	1.213978	0.212907	13810.445312
2151.394002	1.180236	0.212907	15042.611328
2151.394896	1.151825	0.212907	16072.342773
2151.395835	0.795143	0.212907	16818.982422
2151.396898	0.096328	0.212907	16921.378906
2151.397847	0.089839	0.212907	17006.636719
2151.398709	0.089956	0.212907	17084.179687
2151.399764	0.090077	0.212907	17179.210937
2151.400775	0.089945	0.212907	17270.144531
2151.401676	0.089956	0.212907	17351.195312
2151.402628	0.089945	0.212907	17436.822266
2151.403669	0.090051	0.212907	17530.566406
2151.404586	0.090051	0.212907	17613.142578
2151.405444	0.090051	0.212907	17690.406250
2152.493845	1.122484	0.254391	573.589355
2152.494726	1.531011	0.254391	1922.409790
2152.495617	1.512257	0.254391	3269.830811
2152.496731	1.465818	0.254391	4902.751953
2152.497676	1.425762	0.254391	6250.096680
2152.498584	1.388599	0.254391	7510.944336
2152.499462	1.354332	0.254391	8700.047852
2152.500496	1.316580	0.254391	10061.390625
2152.501414	1.283826	0.254391	11239.942383
2152.502299	1.253536	0.254391	12349.322266
2152.503208	1.222328	0.254391	13460.417969
2152.504222	1.189021	0.254391	14666.084961
2152.505154	1.160321	0.254391	15747.503906
2152.506046	1.099134	0.254391	16727.931641
2152.507065	0.185566	0.254391	16917.023437
2152.507965	0.089850	0.254391	16997.888672
2152.508888	0.089993	0.254391	17080.951172
2152.509749	0.089985	0.254391	17158.427734
2152.510789	0.089934	0.254391	17251.958984
2152.511671	0.089941	0.254391	17331.287109
2152.512535	0.089934	0.254391	17408.990234
2152.513619	0.089985	0.254391	17506.535156
2152.514538	0.089857	0.254391	17589.113281
2152.515417	0.089971	0.254391	17668.197266
2153.420544	1.128530	0.214253	547.337158
2153.421436	1.530710	0.214253	1912.730835
2153.422407	1.511305	0.214253	3380.208008
2153.423469	1.464430	0.214253	4935.432617
2153.424400	1.425245	0.214253	6262.335937
2153.425270	1.389126	0.214253	7470.875488
2153.426349	1.348103	0.214253	8925.478516
2153.427345	1.311365	0.214253	10231.597656
2153.428241	1.280083	0.214253	11378.551758
2153.429224	1.247098	0.214253	12604.449219
2153.430287	1.211254	0.214253	13892.011719
2153.431205	1.181426	0.214253	14976.560547
2153.432073	1.153209	0.214253	15977.545898
2153.433182	0.710024	0.214253	16764.962891
2153.434151	0.094237	0.214253	16856.279297
2153.435016	0.089960	0.214253	16934.093750
2153.436124	0.090095	0.214253	17033.919922
2153.437143	0.089938	0.214253	17125.566406
2153.438030	0.089982	0.214253	17205.380859
2153.438938	0.090011	0.214253	17287.111328
2153.439995	0.090007	0.214253	17382.250000
2153.440944	0.089974	0.214253	17467.634766
2153.441806	0.089949	0.214253	17545.169922
2153.442835	0.090099	0.214253	17637.880859
2154.529351	1.179921	0.251076	658.395752
2154.530400	1.532728	0.251076	2266.227539
2154.531291	1.504567	0.251076	3606.796387
2154.532228	1.463818	0.251076	4978.394043
2154.533279	1.419533	0.251076	6470.322754
2154.534225	1.381289	0.251076	7777.022461
2154.535090	1.347458	0.251076	8942.574219
2154.536160	1.309028	0.251076	10343.234375
2154.537184	1.273165	0.251076	11646.956055
2154.538065	1.243206	0.251076	12742.220703
2154.539023	1.210957	0.251076	13902.317383
2154.540093	1.177035	0.251076	15161.745117
2154.541001	1.148427	0.251076	16204.516602
2154.541874	0.753208	0.251076	16862.066406
2154.542939	0.094255	0.251076	16962.449219
2154.543921	0.089861	0.251076	17050.693359
2154.544813	0.089934	0.251076	17130.914062
2154.545794	0.090059	0.251076	17219.261719
2154.546847	0.089879	0.251076	17313.904297
2154.547751	0.089919	0.251076	17395.191406
2154.548611	0.089996	0.251076	17472.587891
2154.549722	0.090011	0.251076	17572.589844
2154.550684	0.089894	0.251076	17659.068359
2154.551572	0.089967	0.251076	17738.958984
2155.456780	1.126677	0.218132	567.845337
2155.457684	1.531425	0.218132	1952.253052
2155.458569	1.513572	0.218132	3291.764160
2155.459563	1.470198	0.218132	4753.140625
2155.460566	1.427252	0.218132	6184.674805
2155.461465	1.390865	0.218132	7435.062988
2155.462479	1.351805	0.218132	8805.793945
2155.463536	1.313408	0.218132	10194.066406
2155.464423	1.281317	0.218132	11330.594727
2155.465304	1.250460	0.218132	12432.250000
2155.466402	1.214711	0.218132	13766.001953
2155.467361	1.183495	0.218132	14900.973633
2155.468231	1.156399	0.218132	15907.041016
2155.469282	0.830317	0.218132	16779.705078
2155.470308	0.100298	0.218132	16882.611328
2155.471189	0.089927	0.218132	16961.835937
2155.472113	0.089945	0.218132	17044.945312
2155.473164	0.090004	0.218132	17139.539062
2155.474111	0.089919	0.218132	17224.693359
2155.474984	0.090037	0.218132	17303.294922
2155.476003	0.090066	0.218132	17395.072266
2155.477022	0.089949	0.218132	17486.730469
2155.477914	0.090029	0.218132	17567.037109
2155.478869	0.090066	0.218132	17653.050781
2156.564930	1.062707	0.262178	459.089600
2156.565792	1.525946	0.262178	1774.455078
2156.566851	1.511320	0.262178	3374.942383
2156.567738	1.472124	0.262178	4680.716309
2156.568606	1.434763	0.262178	5926.090820
2156.569653	1.392444	0.262178	7383.979492
2156.570609	1.355229	0.262178	8679.579102
2156.571481	1.322271	0.262178	9832.598633
2156.572390	1.289282	0.262178	11004.556641
2156.573475	1.253404	0.262178	12364.500000
2156.574374	1.222723	0.262178	13463.728516
2156.575242	1.194324	0.262178	14500.401367
2156.576279	1.161599	0.262178	15704.979492
2156.577251	1.070804	0.262178	16745.800781
2156.578125	0.197344	0.262178	16918.279297
2156.579155	0.089945	0.262178	17010.921875
2156.580192	0.089916	0.262178	17104.164062
2156.581091	0.090015	0.262178	17185.087891
2156.582020	0.089982	0.262178	17268.681641
2156.583078	0.089971	0.262178	17363.871094
2156.584024	0.089952	0.262178	17448.966797
2156.584887	0.089905	0.262178	17526.554687
2156.585939	0.090092	0.262178	17621.330078
2156.586944	0.089982	0.262178	17711.761719
2157.492512	1.135012	0.229254	577.721252
2157.493545	1.532626	0.229254	2160.923584
2157.494423	1.507547	0.229254	3484.550293
2157.495388	1.465598	0.229254	4898.852539
2157.496448	1.420854	0.229254	6404.958008
2157.497362	1.383256	0.229254	7669.253906
2157.498283	1.348088	0.229254	8910.843750
2157.499165	1.314807	0.229254	10070.503906
2157.500203	1.279336	0.229254	11398.454102
2157.501099	1.248783	0.229254	12517.363281
2157.501981	1.219299	0.229254	13592.785156
2157.502968	1.187681	0.229254	14765.025391
2157.503929	1.156890	0.229254	15876.796875
2157.504854	0.993549	0.229254	16795.830078
2157.505724	0.151608	0.229254	16927.728516
2157.506763	0.089821	0.229254	17021.052734
2157.507641	0.090044	0.229254	17100.111328
2157.508508	0.089971	0.229254	17178.115234
2157.509440	0.089949	0.229254	17261.947266
2157.510429	0.089934	0.229254	17350.892578
2157.511305	0.089989	0.229254	17429.722656
2157.512164	0.089989	0.229254	17507.023437
2157.513275	0.090015	0.229254	17607.029297
2157.514172	0.089978	0.229254	17687.740234
2158.599942	1.115347	0.267120	557.673340
2158.600817	1.530267	0.267120	1896.657227
2158.601736	1.512140	0.267120	3286.313965
2158.602821	1.465547	0.267120	4876.432129
2158.603770	1.425590	0.267120	6229.316406
2158.604639	1.390060	0.267120	7437.278320
2158.605677	1.349777	0.267120	8838.346680
2158.606708	1.312181	0.267120	10191.206055
2158.607604	1.280599	0.267120	11338.623047
2158.608574	1.248062	0.267120	12549.243164
2158.609634	1.212147	0.267120	13834.119141
2158.610575	1.181506	0.267120	14945.916992
2158.611446	1.153766	0.267120	15950.846680
2158.612547	0.733755	0.267120	16758.710937
2158.613531	0.094530	0.267120	16851.728516
2158.614426	0.089919	0.267120	16932.207031
2158.615402	0.090026	0.267120	17020.072266
2158.616431	0.089974	0.267120	17112.656250
2158.617336	0.089974	0.267120	17194.083984
2158.618196	0.089985	0.267120	17271.470703
2158.619277	0.090044	0.267120	17368.808594
2158.620266	0.089982	0.267120	17457.800781
2158.621150	0.089941	0.267120	17537.308594
2158.622159	0.089985	0.267120	17628.103516
2159.529242	1.132072	0.236364	573.960327
2159.530216	1.532461	0.236364	2066.577148
2159.531080	1.510518	0.236364	3371.664307
2159.532189	1.462504	0.236364	4993.581055
2159.533229	1.418965	0.236364	6469.304687
2159.534121	1.382475	0.236364	7702.472656
2159.535051	1.346719	0.236364	8954.920898
2159.536117	1.307970	0.236364	10349.216797
2159.537055	1.275088	0.236364	11545.249023
2159.537920	1.245256	0.236364	12622.395508
2159.538989	1.210122	0.236364	13916.015625
2159.540009	1.177412	0.236364	15116.975586
2159.540889	1.149591	0.236364	16128.615234
2159.541847	0.709204	0.236364	16808.033203
2159.542912	0.093303	0.236364	16907.400391
2159.543819	0.089941	0.236364	16988.976562
2159.544685	0.089927	0.236364	17066.853516
2159.545755	0.090051	0.236364	17163.208984
2159.546753	0.089934	0.236364	17252.962891
2159.547652	0.089934	0.236364	17333.814453
2159.548631	0.090015	0.236364	17421.939453
2159.549688	0.089982	0.236364	17517.050781
2159.550593	0.090000	0.236364	17598.500000
2159.551455	0.089941	0.236364	17676.029297
2160.630975	1.049791	0.271966	449.310638
2160.631843	1.525983	0.271966	1773.863525
2160.632858	1.512264	0.271966	3308.812012
2160.633791	1.471080	0.271966	4681.330078
2160.634670	1.433855	0.271966	5941.688477
2160.635666	1.393531	0.271966	7329.645508
2160.636672	1.354032	0.271966	8691.801758
2160.637564	1.320912	0.271966	9870.054687
2160.638427	1.289315	0.271966	10982.733398
2160.639523	1.253079	0.271966	12356.107422
2160.640430	1.222687	0.271966	13465.083984
2160.641308	1.193445	0.271966	14512.928711
2160.642319	1.162222	0.271966	15687.934570
2160.643323	1.050817	0.271966	16742.955078
2160.644207	0.180077	0.271966	16902.142578
2160.645067	0.089879	0.271966	16979.439453
2160.646156	0.089952	0.271966	17077.398437
2160.647076	0.089923	0.271966	17160.126953
2160.647942	0.090004	0.271966	17238.070312
2160.649020	0.090022	0.271966	17335.113281
2160.650014	0.089952	0.271966	17424.525391
2160.650916	0.089963	0.271966	17505.671875
2160.651903	0.089956	0.271966	17594.458984
2160.652952	0.090007	0.271966	17688.876953
2161.571015	1.066644	0.241077	459.723694
2161.571882	1.526287	0.241077	1783.014160
2161.572941	1.510569	0.241077	3382.706543
2161.573846	1.470535	0.241077	4713.540527
2161.574730	1.432899	0.241077	5980.223633
2161.575643	1.394989	0.241077	7253.848633
2161.576655	1.355984	0.241077	8626.104492
2161.577536	1.323098	0.241077	9791.753906
2161.578414	1.291945	0.241077	10926.081055
2161.579442	1.258077	0.241077	12219.384766
2161.580341	1.226349	0.241077	13321.872070
2161.581247	1.196334	0.241077	14405.750977
2161.582131	1.167393	0.241077	15437.726562
2161.583165	1.133262	0.241077	16609.519531
2161.584073	0.302765	0.241077	16884.429687
2161.584934	0.090095	0.241077	16962.001953
2161.586012	0.089967	0.241077	17058.986328
2161.586940	0.089945	0.241077	17142.455078
2161.587818	0.089938	0.241077	17221.419922
2161.588782	0.090059	0.241077	17308.236328
2161.589782	0.089868	0.241077	17398.105469
2161.590661	0.090026	0.241077	17477.238281
2161.591524	0.090037	0.241077	17554.939453
2161.592591	0.089886	0.241077	17650.847656
2162.663366	1.058276	0.269723	460.350189
2162.664234	1.526265	0.269723	1785.147827
2162.665278	1.510269	0.269723	3361.868164
2162.666295	1.466085	0.269723	4852.876953
2162.667192	1.428095	0.269723	6133.877930
2162.668150	1.389778	0.269723	7465.285156
2162.669206	1.348411	0.269723	8889.207031
2162.670140	1.314067	0.269723	10116.545898
2162.671009	1.282808	0.269723	11231.305664
2162.672079	1.247058	0.269723	12565.658203
2162.673072	1.213550	0.269723	13770.712891
2162.673964	1.184769	0.269723	14827.527344
2162.674967	1.153876	0.269723	15984.864258
2162.676036	0.744152	0.269723	16780.363281
2162.676933	0.099005	0.269723	16869.169922
2162.677789	0.089883	0.269723	16946.109375
2162.678882	0.090026	0.269723	17044.507812
2162.679870	0.089956	0.269723	17133.384766
2162.680751	0.089974	0.269723	17212.652344
2162.681752	0.090062	0.269723	17302.804687
2162.682798	0.090015	0.269723	17396.960937
2162.683670	0.089941	0.269723	17475.390625
2162.684542	0.090033	0.269723	17553.898437
2162.685641	0.090029	0.269723	17652.839844
2163.611065	1.068021	0.251055	448.568939
2163.612165	1.531132	0.251055	2132.813721
2163.613134	1.504358	0.251055	3590.536621
2163.614008	1.465990	0.251055	4871.812012
2163.615041	1.423297	0.251055	6342.078125
2163.616088	1.380923	0.251055	7787.904297
2163.616980	1.346081	0.251055	8988.609375
2163.617877	1.312540	0.251055	10165.958008
2163.618964	1.275187	0.251055	11552.085937
2163.619914	1.243162	0.251055	12733.089844
2163.620775	1.213850	0.251055	13778.214844
2163.621829	1.180470	0.251055	15022.429687
2163.622861	1.148196	0.251055	16207.368164
2163.623744	0.753252	0.251055	16872.490234
2163.624697	0.100880	0.251055	16968.628906
2163.625762	0.090011	0.251055	17064.490234
2163.626688	0.089919	0.251055	17147.755859
2163.627561	0.089982	0.251055	17226.310547
2163.628606	0.089978	0.251055	17320.337891
2163.629616	0.089919	0.251055	17411.156250
2163.630507	0.089963	0.251055	17491.314453
2163.631486	0.089996	0.251055	17579.419922
2163.632542	0.089952	0.251055	17674.410156
2163.633466	0.089967	0.251055	17757.539062
2164.695102	1.165935	0.283306	630.770874
2164.696124	1.532175	0.283306	2196.654053
2164.697009	1.505892	0.283306	3529.368652
2164.697882	1.467598	0.283306	4810.581543
2164.698850	1.427098	0.283306	6192.012695
2164.699811	1.387537	0.283306	7525.435547
2164.700730	1.352135	0.283306	8768.047852
2164.701611	1.319366	0.283306	9930.410156
2164.702638	1.283595	0.283306	11248.662109
2164.703542	1.252625	0.283306	12381.035156
2164.704422	1.222936	0.283306	13457.218750
2164.705313	1.192368	0.283306	14519.619141
2164.706356	1.160771	0.283306	15730.303711
2164.707256	1.101742	0.283306	16721.871094
2164.708121	0.232189	0.283306	16922.714844
2164.709224	0.089846	0.283306	17021.814453
2164.710107	0.090007	0.283306	17101.291016
2164.710975	0.090095	0.283306	17179.494141
2164.711974	0.090011	0.283306	17269.416016
2164.712971	0.090015	0.283306	17359.160156
2164.713867	0.089916	0.283306	17439.724609
2164.714730	0.090007	0.283306	17517.400391
2164.715829	0.090015	0.283306	17616.326172
2164.716732	0.090000	0.283306	17697.595703
2165.652309	1.165734	0.253488	676.125549
2165.653227	1.532355	0.253488	2082.827148
2165.654097	1.509569	0.253488	3396.152344
2165.655080	1.466990	0.253488	4838.203125
2165.656092	1.423762	0.253488	6279.050293
2165.656994	1.387401	0.253488	7530.486328
2165.657863	1.352721	0.253488	8706.000977
2165.658953	1.313492	0.253488	10137.708008
2165.659880	1.280852	0.253488	11325.057617
2165.660762	1.251006	0.253488	12428.444336
2165.661744	1.218637	0.253488	13625.145508
2165.662760	1.184685	0.253488	14828.785156
2165.663649	1.156747	0.253488	15857.132812
2165.664633	0.918772	0.253488	16761.205078
2165.665689	0.110592	0.253488	16877.990234
2165.666595	0.089941	0.253488	16959.476562
2165.667452	0.090062	0.253488	17036.660156
2165.668538	0.090077	0.253488	17134.484375
2165.669540	0.089960	0.253488	17224.623047
2165.670418	0.090037	0.253488	17303.675781
2165.671418	0.089985	0.253488	17393.660156
2165.672475	0.089971	0.253488	17488.759766
2165.673356	0.089945	0.253488	17568.001953
2165.674218	0.090055	0.253488	17645.628906
2166.726849	1.059104	0.286819	452.237396
2166.727815	1.525529	0.286819	1925.897949
2166.728865	1.506302	0.286819	3507.515625
2166.729788	1.465950	0.286819	4860.586914
2166.730650	1.428450	0.286819	6091.910645
2166.731733	1.385749	0.286819	7592.677246
2166.732725	1.347001	0.286819	8928.902344
2166.733605	1.314639	0.286819	10085.784180
2166.734614	1.279944	0.286819	11377.248047
2166.735666	1.244546	0.286819	12686.509766
2166.736567	1.213315	0.286819	13779.707031
2166.737427	1.184366	0.286819	14798.261719
2166.738539	1.151140	0.286819	16078.330078
2166.739513	0.771573	0.286819	16829.841797
2166.740369	0.102568	0.286819	16917.640625
2166.741454	0.090000	0.286819	17015.291016
2166.742512	0.089985	0.286819	17110.496094
2166.743390	0.089941	0.286819	17189.464844
2166.744323	0.089993	0.286819	17273.427734
2166.745392	0.090022	0.286819	17369.662109
2166.746333	0.089949	0.286819	17454.304687
2166.747200	0.089963	0.286819	17532.302734
2166.748250	0.089974	0.286819	17626.775391
2166.749254	0.089971	0.286819	17717.105469
2167.687351	1.073906	0.261497	453.188416
2167.688463	1.530992	0.261497	2155.651855
2167.689441	1.503387	0.261497	3625.964844
2167.690313	1.464873	0.261497	4903.333984
2167.691351	1.421510	0.261497	6378.861328
2167.692389	1.379879	0.261497	7811.175781
2167.693284	1.345012	0.261497	9014.961914
2167.694198	1.311244	0.261497	10213.438477
2167.695290	1.273429	0.261497	11604.022461
2167.696243	1.241510	0.261497	12787.181641
2167.697114	1.211342	0.261497	13842.259766
2167.698164	1.178342	0.261497	15079.519531
2167.699179	1.146951	0.261497	16243.674805
2167.700073	0.707648	0.261497	16876.312500
2167.701047	0.097819	0.261497	16971.587891
2167.702084	0.089971	0.261497	17064.886719
2167.703010	0.089960	0.261497	17148.189453
2167.703866	0.090007	0.261497	17225.236328
2167.704927	0.090004	0.261497	17320.730469
2167.705921	0.089956	0.261497	17410.146484
2167.706793	0.089905	0.261497	17488.542969
2167.707761	0.089967	0.261497	17575.630859
2167.708820	0.089989	0.261497	17670.929687
2167.709730	0.089967	0.261497	17752.798828
2168.765693	1.124418	0.289332	539.720459
2168.766582	1.529268	0.289332	1899.239258
2168.767464	1.513923	0.289332	3234.519531
2168.768427	1.472490	0.289332	4652.527832
2168.769414	1.430153	0.289332	6064.088379
2168.770304	1.393579	0.289332	7304.374023
2168.771245	1.357072	0.289332	8581.377930
2168.772297	1.318532	0.289332	9968.472656
2168.773177	1.286887	0.289332	11100.933594
2168.774040	1.257012	0.289332	12185.734375
2168.775083	1.222405	0.289332	13460.703125
2168.776035	1.191218	0.289332	14594.743164
2168.776903	1.163335	0.289332	15604.517578
2168.777794	1.092894	0.289332	16578.287109
2168.778892	0.188137	0.289332	16784.861328
2168.779789	0.089766	0.289332	16865.380859
2168.780655	0.089993	0.289332	16943.314453
2168.781658	0.090022	0.289332	17033.607422
2168.782643	0.089901	0.289332	17122.160156
2168.783512	0.089894	0.289332	17200.277344
2168.784602	0.089956	0.289332	17298.330078
2168.785627	0.089930	0.289332	17390.507812
2168.786520	0.089952	0.289332	17470.835937
2168.787454	0.089974	0.289332	17554.871094
2169.721271	1.060236	0.264035	447.419434
2169.722325	1.530696	0.264035	2060.772949
2169.723213	1.509496	0.264035	3401.205322
2169.724087	1.470985	0.264035	4686.846191
2169.725055	1.430383	0.264035	6071.457031
2169.726002	1.391169	0.264035	7388.894531
2169.726923	1.355541	0.264035	8637.347656
2169.727803	1.322541	0.264035	9801.184570
2169.728848	1.286268	0.264035	11145.334961
2169.729740	1.255364	0.264035	12265.119141
2169.730621	1.225876	0.264035	13345.116211
2169.731553	1.195181	0.264035	14459.024414
2169.732560	1.163595	0.264035	15630.764648
2169.733441	1.135426	0.264035	16631.074219
2169.734327	0.326074	0.264035	16919.976562
2169.735420	0.089806	0.264035	17018.134766
2169.736298	0.089890	0.264035	17097.058594
2169.737154	0.089846	0.264035	17173.966797
2169.738225	0.089956	0.264035	17270.310547
2169.739194	0.089868	0.264035	17357.392578
2169.740076	0.089938	0.264035	17436.716797
2169.740946	0.089989	0.264035	17515.007812
2169.742061	0.090081	0.264035	17615.447266
2169.742959	0.089927	0.264035	17696.201172
2170.804511	1.139557	0.294908	580.034424
2170.805538	1.531619	0.294908	2153.006836
2170.806425	1.506742	0.294908	3489.486816
2170.807387	1.464738	0.294908	4898.564453
2170.808461	1.419855	0.294908	6423.488281
2170.809366	1.382585	0.294908	7674.728027
2170.810236	1.348290	0.294908	8847.740234
2170.811299	1.309984	0.294908	10240.253906
2170.812295	1.274974	0.294908	11510.127930
2170.813187	1.245088	0.294908	12620.746094
2170.814168	1.212598	0.294908	13810.304687
2170.815233	1.178324	0.294908	15065.219727
2170.816145	1.149587	0.294908	16113.643555
2170.817021	0.782450	0.294908	16799.070312
2170.818128	0.094812	0.294908	16904.027344
2170.819094	0.089875	0.294908	16990.847656
2170.819959	0.089905	0.294908	17068.615234
2170.821087	0.090000	0.294908	17170.134766
2170.822113	0.089993	0.294908	17262.466797
2170.823005	0.089843	0.294908	17342.605469
2170.823939	0.090059	0.294908	17426.720703
2170.824975	0.090048	0.294908	17520.009766
2170.825915	0.089927	0.294908	17604.541016
2170.826780	0.090066	0.294908	17682.447266
2171.751225	1.170311	0.261872	644.841553
2171.752241	1.531963	0.261872	2201.315918
2171.753147	1.504439	0.261872	3564.337158
2171.754141	1.461401	0.261872	5016.970215
2171.755207	1.417170	0.261872	6527.673828
2171.756113	1.379912	0.261872	7777.874023
2171.756991	1.344928	0.261872	8958.720703
2171.758112	1.305425	0.261872	10422.101562
2171.759073	1.272107	0.261872	11644.596680
2171.759939	1.242781	0.261872	12720.844727
2171.760989	1.207980	0.261872	13989.223633
2171.762013	1.174860	0.261872	15192.279297
2171.762903	1.147240	0.261872	16213.323242
2171.763857	0.662282	0.261872	16845.140625
2171.764896	0.092388	0.261872	16941.130859
2171.765828	0.089963	0.261872	17024.976562
2171.766691	0.089938	0.261872	17102.593750
2171.767745	0.090007	0.261872	17197.460937
2171.768767	0.089952	0.261872	17289.392578
2171.769642	0.089945	0.261872	17368.093750
2171.770598	0.089945	0.261872	17454.082031
2171.771660	0.089960	0.261872	17549.619141
2171.772572	0.089901	0.261872	17631.609375
2171.773437	0.089927	0.261872	17709.396484
2172.842947	1.058009	0.299371	452.827850
2172.843936	1.525214	0.299371	1961.264160
2172.844996	1.504871	0.299371	3556.426758
2172.845904	1.464708	0.299371	4886.381836
2172.846766	1.426824	0.299371	6116.303711
2172.847883	1.383457	0.299371	7661.625000
2172.848850	1.345488	0.299371	8962.711914
2172.849758	1.311951	0.299371	10153.962891
2172.850656	1.281024	0.299371	11304.322266
2172.851660	1.247311	0.299371	12556.622070
2172.852585	1.215319	0.299371	13680.791992
2172.853513	1.185450	0.299371	14780.889648
2172.854386	1.157428	0.299371	15791.324219
2172.855443	0.930992	0.299371	16775.382812
2172.856342	0.123182	0.299371	16886.123047
2172.857227	0.089769	0.299371	16965.568359
2172.858233	0.090029	0.299371	17056.138672
2172.859155	0.089912	0.299371	17139.037109
2172.860084	0.089971	0.299371	17222.619141
2172.860943	0.089886	0.299371	17299.832031
2172.861986	0.089923	0.299371	17393.621094
2172.862861	0.089883	0.299371	17472.267578
2172.863727	0.089850	0.299371	17550.078125
2172.864772	0.090000	0.299371	17644.128906
2173.786307	1.060833	0.265602	456.157990
2173.787325	1.527349	0.265602	2010.998901
2173.788366	1.504589	0.265602	3577.275879
2173.789261	1.464595	0.265602	4888.087891
2173.790156	1.425857	0.265602	6164.229980
2173.791251	1.382692	0.265602	7678.277344
2173.792207	1.345942	0.265602	8964.998047
2173.793075	1.313913	0.265602	10105.474609
2173.794122	1.277465	0.265602	11442.980469
2173.795157	1.242759	0.265602	12729.235352
2173.796046	1.212484	0.265602	13807.133789
2173.797000	1.181719	0.265602	14934.493164
2173.798062	1.148727	0.265602	16154.441406
2173.799006	0.726123	0.265602	16839.902344
2173.799863	0.099364	0.265602	16925.056641
2173.800907	0.090000	0.265602	17019.017578
2173.801911	0.089960	0.265602	17109.337891
2173.802793	0.089974	0.265602	17188.695312
2173.803670	0.089971	0.265602	17267.599609
2173.804643	0.090044	0.265602	17355.212891
2173.805604	0.089963	0.265602	17441.667969
2173.806536	0.089971	0.265602	17525.521484
2173.807399	0.090011	0.265602	17603.201172
2173.808422	0.089993	0.265602	17695.263672
2174.879927	1.063447	0.300737	447.711273
2174.881017	1.530102	0.300737	2115.522949
2174.881990	1.503479	0.300737	3578.407959
2174.882878	1.465049	0.300737	4879.371094
2174.883889	1.422821	0.300737	6317.843262
2174.884952	1.380201	0.300737	7784.997070
2174.885851	1.344972	0.300737	8994.126953
2174.886757	1.311343	0.300737	10182.203125
2174.887847	1.273784	0.300737	11570.627930
2174.888805	1.241653	0.300737	12760.130859
2174.889679	1.212096	0.300737	13819.502930
2174.890727	1.178507	0.300737	15054.578125
2174.891749	1.147075	0.300737	16226.888672
2174.892655	0.701902	0.300737	16862.812500
2174.893612	0.097485	0.300737	16956.105469
2174.894659	0.089952	0.300737	17050.285156
2174.895578	0.089919	0.300737	17132.921875
2174.896438	0.089923	0.300737	17210.255859
2174.897514	0.089993	0.300737	17307.087891
2174.898522	0.089890	0.300737	17397.697266
2174.899399	0.089996	0.300737	17476.625000
2174.900385	0.089993	0.300737	17565.357422
2174.901433	0.090015	0.300737	17659.693359
2174.902325	0.089912	0.300737	17739.894531
2175.820875	1.175947	0.280486	670.289978
2175.821878	1.532212	0.280486	2207.098633
2175.822773	1.504647	0.280486	3553.757812
2175.823637	1.465378	0.280486	4819.844727
2175.824713	1.421975	0.280486	6349.890137
2175.825612	1.384959	0.280486	7594.967773
2175.826487	1.351110	0.280486	8777.188477
2175.827497	1.314598	0.280486	10104.932617
2175.828508	1.278512	0.280486	11397.507812
2175.829385	1.248538	0.280486	12492.475586
2175.830383	1.215223	0.280486	13705.268555
2175.831458	1.181151	0.280486	14975.005859
2175.832347	1.152627	0.280486	15999.691406
2175.833217	0.860837	0.280486	16748.619141
2175.834330	0.101191	0.280486	16861.246094
2175.835293	0.089846	0.280486	16947.767578
2175.836161	0.089938	0.280486	17025.833984
2175.837169	0.090000	0.280486	17116.554687
2175.838210	0.089886	0.280486	17210.126953
2175.839097	0.089956	0.280486	17289.917969
2175.839991	0.089930	0.280486	17370.316406
2175.841084	0.090004	0.280486	17468.689453
2175.842035	0.089923	0.280486	17554.207031
2175.842896	0.089974	0.280486	17631.675781
2176.915640	1.050582	0.307883	439.143402
2176.916563	1.524111	0.307883	1845.898193
2176.917649	1.506145	0.307883	3481.571777
2176.918603	1.464430	0.307883	4878.637695
2176.919474	1.427410	0.307883	6121.911621
2176.920511	1.385599	0.307883	7558.778320
2176.921541	1.345785	0.307883	8944.936523
2176.922441	1.312885	0.307883	10126.532227
2176.923412	1.279343	0.307883	11368.774414
2176.924465	1.243162	0.307883	12677.823242
2176.925401	1.211514	0.307883	13811.799805
2176.926334	1.181715	0.307883	14914.339844
2176.927205	1.153879	0.307883	15919.369141
2176.928271	0.809205	0.307883	16781.982422
2176.929162	0.104542	0.307883	16875.128906
2176.930038	0.089813	0.307883	16953.804687
2176.931020	0.089971	0.307883	17042.156250
2176.931965	0.089890	0.307883	17127.101562
2176.932889	0.089894	0.307883	17210.164062
2176.933747	0.089916	0.307883	17287.312500
2176.934759	0.089941	0.307883	17378.333984
2176.935655	0.089854	0.307883	17458.841797
2176.936527	0.089886	0.307883	17537.222656
2176.937436	0.089927	0.307883	17618.966797
2177.855932	1.048546	0.284325	442.486481
2177.856965	1.527067	0.284325	2019.946411
2177.858014	1.503677	0.284325	3597.303223
2177.858900	1.464294	0.284325	4894.667969
2177.859812	1.425095	0.284325	6194.354492
2177.860887	1.382307	0.284325	7680.334961
2177.861838	1.345756	0.284325	8960.148437
2177.862712	1.313346	0.284325	10108.012695
2177.863742	1.277249	0.284325	11423.578125
2177.864766	1.242741	0.284325	12696.144531
2177.865664	1.212653	0.284325	13785.106445
2177.866632	1.181693	0.284325	14928.985352
2177.867692	1.148397	0.284325	16146.286133
2177.868625	0.737479	0.284325	16834.353516
2177.869488	0.099862	0.284325	16920.535156
2177.870559	0.089963	0.284325	17016.886719
2177.871558	0.089927	0.284325	17106.722656
2177.872449	0.090018	0.284325	17186.929687
2177.873413	0.089996	0.284325	17273.685547
2177.874450	0.090029	0.284325	17367.046875
2177.875364	0.089941	0.284325	17449.253906
2177.876286	0.090007	0.284325	17532.240234
2177.877150	0.090011	0.284325	17610.009766
2177.878193	0.089912	0.284325	17703.789062
2178.952637	1.056808	0.310811	451.256958
2178.953698	1.529410	0.310811	2073.961426
2178.954717	1.502743	0.310811	3605.256348
2178.955616	1.463478	0.310811	4920.922852
2178.956580	1.423542	0.310811	6293.217773
2178.957628	1.380835	0.310811	7740.333008
2178.958551	1.345243	0.310811	8981.992187
2178.959413	1.312767	0.310811	10113.597656
2178.960505	1.275553	0.310811	11506.501953
2178.961502	1.241686	0.310811	12744.462891
2178.962385	1.212111	0.310811	13814.756836
2178.963385	1.180272	0.310811	14995.029297
2178.964437	1.147698	0.310811	16202.407227
2178.965340	0.724471	0.310811	16856.605469
2178.966197	0.099126	0.310811	16941.556641
2178.967281	0.089923	0.310811	17039.033203
2178.968251	0.089930	0.310811	17126.265625
2178.969134	0.090000	0.310811	17205.736328
2178.970133	0.089993	0.310811	17295.638672
2178.971186	0.090011	0.310811	17390.419922
2178.972080	0.089945	0.310811	17470.830078
2178.972963	0.090033	0.310811	17550.330078
2178.974062	0.089890	0.310811	17649.119141
2178.975023	0.089927	0.310811	17735.539062
2179.892665	1.059961	0.292297	446.243500
2179.893747	1.529535	0.292297	2101.200195
2179.894739	1.502904	0.292297	3592.081055
2179.895631	1.464192	0.292297	4898.140137
2179.896619	1.423019	0.292297	6304.082520
2179.897671	1.380934	0.292297	7756.825195
2179.898568	1.345715	0.292297	8963.931641
2179.899430	1.312815	0.292297	10095.578125
2179.900530	1.276007	0.292297	11499.185547
2179.901499	1.243008	0.292297	12703.660156
2179.902362	1.213619	0.292297	13751.013672
2179.903356	1.181730	0.292297	14925.653320
2179.904429	1.148965	0.292297	16158.492187
2179.905314	0.786266	0.292297	16854.337891
2179.906176	0.104125	0.292297	16944.093750
2179.907289	0.089996	0.292297	17044.259766
2179.908247	0.089883	0.292297	17130.367187
2179.909116	0.089949	0.292297	17208.533203
2179.910130	0.089956	0.292297	17299.748047
2179.911164	0.089894	0.292297	17392.699219
2179.912058	0.089905	0.292297	17473.074219
2179.912971	0.089945	0.292297	17555.193359
2179.914038	0.089993	0.292297	17651.214844
2179.914998	0.089952	0.292297	17737.568359
2180.986810	1.060836	0.309643	447.672882
2180.987869	1.530538	0.309643	2068.512939
2180.988751	1.508910	0.309643	3399.371582
2180.989625	1.470590	0.309643	4684.666992
2180.990593	1.430138	0.309643	6069.040527
2180.991533	1.391063	0.309643	7376.640137
2180.992419	1.356812	0.309643	8578.775391
2180.993354	1.321926	0.309643	9814.776367
2180.994412	1.284811	0.309643	11174.106445
2180.995312	1.253881	0.309643	12302.598633
2180.996180	1.224701	0.309643	13365.638672
2180.997246	1.189819	0.309643	14633.986328
2180.998211	1.159592	0.309643	15752.993164
2180.999095	1.098146	0.309643	16723.753906
2181.000044	0.221188	0.309643	16933.660156
2181.001083	0.089832	0.309643	17026.996094
2181.001964	0.089989	0.309643	17106.277344
2181.002821	0.089923	0.309643	17183.341797
2181.003853	0.089974	0.309643	17276.195312
2181.004814	0.089916	0.309643	17362.603516
2181.005670	0.090015	0.309643	17439.656250
2181.006697	0.090000	0.309643	17532.085937
2181.007730	0.089916	0.309643	17624.968750
2181.008619	0.089945	0.309643	17704.929687
2181.928894	1.051406	0.295274	446.847656
2181.929934	1.527400	0.295274	2035.343506
2181.930988	1.502823	0.295274	3619.319336
2181.931870	1.463628	0.295274	4910.239258
2181.932740	1.426615	0.295274	6151.394531
2181.933687	1.388148	0.295274	7465.970703
2181.934680	1.349949	0.295274	8806.469727
2181.935602	1.315986	0.295274	10019.809570
2181.936491	1.284565	0.295274	11161.788086
2181.937499	1.250574	0.295274	12422.366211
2181.938411	1.219731	0.295274	13534.761719
2181.939292	1.190746	0.295274	14583.808594
2181.940154	1.162350	0.295274	15585.753906
2181.941212	1.075521	0.295274	16723.656250
2181.942101	0.197487	0.295274	16899.222656
2181.942958	0.089938	0.295274	16976.298828
2181.944050	0.090026	0.295274	17074.607422
2181.944959	0.089960	0.295274	17156.380859
2181.945828	0.089978	0.295274	17234.572266
2181.946807	0.090037	0.295274	17322.718750
2181.947809	0.089897	0.295274	17412.796875
2181.948707	0.089971	0.295274	17493.589844
2181.949567	0.090007	0.295274	17570.996094
2181.950647	0.090055	0.295274	17668.255859
2183.020314	1.134492	0.314707	577.456482
2183.021275	1.531040	0.314707	2048.785889
2183.022139	1.509771	0.314707	3353.227539
2183.023184	1.464587	0.314707	4883.721191
2183.024217	1.421338	0.314707	6351.962891
2183.025098	1.385057	0.314707	7572.198242
2183.026016	1.349315	0.314707	8810.869141
2183.027092	1.310200	0.314707	10220.644531
2183.028038	1.276893	0.314707	11428.585937
2183.028910	1.246923	0.314707	12515.902344
2183.029943	1.212433	0.314707	13768.345703
2183.030976	1.179412	0.314707	14986.677734
2183.031868	1.151689	0.314707	16013.984375
2183.032843	0.786552	0.314707	16780.873047
2183.033914	0.095669	0.314707	16883.333984
2183.034845	0.089971	0.314707	16967.097656
2183.035701	0.090000	0.314707	17044.136719
2183.036794	0.090015	0.314707	17142.523437
2183.037781	0.089919	0.314707	17231.273437
2183.038677	0.089923	0.314707	17311.843750
2183.039660	0.090040	0.314707	17400.353516
2183.040699	0.089996	0.314707	17493.859375
2183.041607	0.090000	0.314707	17575.580078
2183.042465	0.089971	0.314707	17652.775391
2183.965626	1.064883	0.304209	450.445465
2183.966721	1.529619	0.304209	2125.378418
2183.967716	1.501827	0.304209	3619.696777
2183.968602	1.463383	0.304209	4916.253906
2183.969624	1.421210	0.304209	6368.730469
2183.970671	1.379264	0.304209	7812.819824
2183.971554	1.344617	0.304209	9000.116211
2183.972421	1.311372	0.304209	10137.076172
2183.973531	1.274092	0.304209	11551.318359
2183.974497	1.241668	0.304209	12750.769531
2183.975359	1.212275	0.304209	13795.750977
2183.976398	1.178793	0.304209	15020.516602
2183.977463	1.146324	0.304209	16241.351562
2183.978345	0.705304	0.304209	16863.429687
2183.979286	0.097745	0.304209	16955.408203
2183.980350	0.090011	0.304209	17051.179687
2183.981294	0.089912	0.304209	17136.056641
2183.982161	0.089993	0.304209	17214.080078
2183.983219	0.090022	0.304209	17309.324219
2183.984224	0.089956	0.304209	17399.730469
2183.985119	0.090000	0.304209	17480.281250
2183.986072	0.090026	0.304209	17566.076172
2183.987134	0.090022	0.304209	17661.679687
2183.988060	0.089941	0.304209	17744.964844
2185.055418	1.048359	0.318925	441.359253
2185.056391	1.524119	0.318925	1924.326660
2185.057420	1.505856	0.318925	3473.852295
2185.058321	1.466656	0.318925	4795.309570
2185.059188	1.429274	0.318925	6034.489746
2185.060255	1.386606	0.318925	7513.999023
2185.061199	1.350121	0.318925	8788.513672
2185.062085	1.317334	0.318925	9955.671875
2185.063044	1.284166	0.318925	11187.187500
2185.064071	1.248929	0.318925	12469.837891
2185.064960	1.219105	0.318925	13553.622070
2185.065823	1.190189	0.318925	14580.755859
2185.066899	1.157179	0.318925	15825.880859
2185.067844	1.003455	0.318925	16774.144531
2185.068706	0.156394	0.318925	16908.957031
2185.069765	0.089908	0.318925	17004.169922
2185.070779	0.089930	0.318925	17095.359375
2185.071650	0.089930	0.318925	17173.689453
2185.072609	0.090066	0.318925	17260.062500
2185.073668	0.089934	0.318925	17355.302734
2185.074592	0.089938	0.318925	17438.404297
2185.075457	0.089982	0.318925	17516.238281
2185.076522	0.089971	0.318925	17612.056641
2185.077526	0.089890	0.318925	17702.306641
2186.002613	1.049322	0.306223	441.764771
2186.003615	1.526968	0.306223	1971.786499
2186.004552	1.508573	0.306223	3385.319336
2186.005434	1.469952	0.306223	4681.817383
2186.006413	1.429248	0.306223	6081.051270
2186.007416	1.387910	0.306223	7473.125000
2186.008312	1.353219	0.306223	8685.609375
2186.009178	1.320099	0.306223	9828.814453
2186.010272	1.282712	0.306223	11232.101562
2186.011183	1.251530	0.306223	12372.245117
2186.012065	1.221694	0.306223	13449.779297
2186.013067	1.189988	0.306223	14642.147461
2186.014076	1.157556	0.306223	15810.121094
2186.014959	1.064443	0.306223	16750.025391
2186.015954	0.178531	0.306223	16927.664062
2186.016998	0.089850	0.306223	17021.466797
2186.017897	0.090015	0.306223	17102.390625
2186.018764	0.089945	0.306223	17180.373047
2186.019844	0.089989	0.306223	17277.560547
2186.020840	0.089894	0.306223	17367.095703
2186.021733	0.089945	0.306223	17447.416016
2186.022707	0.089956	0.306223	17535.033203
2186.023749	0.089919	0.306223	17628.728516
2186.024655	0.089861	0.306223	17710.142578
2187.090198	1.129340	0.317692	581.609863
2187.091112	1.529938	0.317692	1979.972900
2187.091975	1.510312	0.317692	3283.372559
2187.093067	1.464309	0.317692	4882.397949
2187.094078	1.421667	0.317692	6319.703613
2187.094964	1.385380	0.317692	7547.149902
2187.095964	1.347191	0.317692	8894.340820
2187.097028	1.308669	0.317692	10286.765625
2187.097924	1.276670	0.317692	11430.662109
2187.098812	1.245700	0.317692	12536.843750
2187.099904	1.210298	0.317692	13858.489258
2187.100874	1.179379	0.317692	15002.486328
2187.101744	1.152067	0.317692	16004.784180
2187.102774	0.746276	0.317692	16773.447266
2187.103813	0.094164	0.317692	16871.283203
2187.104706	0.089934	0.317692	16951.593750
2187.105628	0.089960	0.317692	17034.537109
2187.106698	0.089989	0.317692	17130.826172
2187.107632	0.089883	0.317692	17214.777344
2187.108552	0.089846	0.317692	17297.435547
2187.109415	0.089901	0.317692	17375.019531
2187.110456	0.089945	0.317692	17468.652344
2187.111330	0.089875	0.317692	17547.203125
2187.112202	0.090007	0.317692	17625.689453
2188.038590	1.068252	0.308495	449.734070
2188.039705	1.530000	0.308495	2155.684082
2188.040673	1.501802	0.308495	3609.428223
2188.041566	1.463207	0.308495	4916.071777
2188.042593	1.420895	0.308495	6375.330566
2188.043633	1.378993	0.308495	7809.483398
2188.044517	1.344474	0.308495	8997.998047
2188.045410	1.310768	0.308495	10168.513672
2188.046519	1.273206	0.308495	11580.499023
2188.047471	1.240785	0.308495	12761.726562
2188.048392	1.210422	0.308495	13876.525391
2188.049265	1.181770	0.308495	14908.210937
2188.050316	1.150133	0.308495	16117.000977
2188.051197	0.829882	0.308495	16848.126953
2188.052069	0.107970	0.308495	16942.277344
2188.052932	0.089868	0.308495	17019.833984
2188.053993	0.089974	0.308495	17115.296875
2188.054887	0.089923	0.308495	17195.687500
2188.055761	0.089956	0.308495	17274.308594
2188.056757	0.089978	0.308495	17363.925781
2188.057679	0.089916	0.308495	17446.828125
2188.058601	0.089996	0.308495	17529.804687
2188.059464	0.089952	0.308495	17607.433594
2188.060496	0.089941	0.308495	17700.253906
2189.125925	1.150331	0.320902	597.021729
2189.126953	1.531128	0.320902	2171.021240
2189.127846	1.504882	0.320902	3514.880371
2189.128804	1.463624	0.320902	4917.032227
2189.129861	1.419045	0.320902	6416.962891
2189.130798	1.381011	0.320902	7710.969727
2189.131661	1.347209	0.320902	8873.611328
2189.132732	1.309072	0.320902	10275.627930
2189.133737	1.273429	0.320902	11555.423828
2189.134617	1.243780	0.320902	12649.951172
2189.135607	1.211184	0.320902	13849.023437
2189.136669	1.176973	0.320902	15098.968750
2189.137570	1.148178	0.320902	16133.476562
2189.138451	0.772079	0.320902	16813.677734
2189.139539	0.094325	0.320902	16916.302734
2189.140525	0.089938	0.320902	17004.980469
2189.141425	0.089949	0.320902	17085.933594
2189.142392	0.090007	0.320902	17172.970703
2189.143449	0.089949	0.320902	17268.046875
2189.144346	0.089952	0.320902	17348.734375
2189.145208	0.089985	0.320902	17426.300781
2189.146323	0.089945	0.320902	17526.589844
2189.147280	0.089912	0.320902	17612.634766
2189.148150	0.089930	0.320902	17690.875000
2190.074068	1.081564	0.313809	476.969604
2190.074935	1.525276	0.313809	1799.383789
2190.076027	1.506412	0.313809	3444.386230
2190.077032	1.462756	0.313809	4914.456055
2190.077914	1.425487	0.313809	6171.735352
2190.078912	1.385654	0.313809	7554.618164
2190.079973	1.344803	0.313809	8981.455078
2190.080878	1.311405	0.313809	10168.276367
2190.081738	1.279647	0.313809	11268.773437
2190.082844	1.243843	0.313809	12644.463867
2190.083820	1.211019	0.313809	13826.418945
2190.084689	1.182792	0.313809	14854.264648
2190.085693	1.151543	0.313809	16010.414062
2190.086769	0.709545	0.313809	16773.884766
2190.087643	0.096940	0.313809	16858.609375
2190.088523	0.089868	0.313809	16937.693359
2190.089615	0.089912	0.313809	17035.876953
2190.090572	0.089879	0.313809	17121.890625
2190.091441	0.089963	0.313809	17200.068359
2190.092462	0.090077	0.313809	17292.037109
2190.093492	0.090004	0.313809	17384.740234
2190.094386	0.089908	0.313809	17465.119141
2190.095306	0.089945	0.313809	17547.869141
2190.096383	0.089952	0.313809	17644.748047
2191.161026	1.057006	0.326256	454.512390
2191.161893	1.524840	0.326256	1776.548584
2191.162875	1.512393	0.326256	3261.718018
2191.163825	1.470337	0.326256	4658.538086
2191.164744	1.431471	0.326256	5974.059570
2191.165631	1.395051	0.326256	7211.469727
2191.166655	1.355687	0.326256	8599.693359
2191.167562	1.321670	0.326256	9798.448242
2191.168442	1.290315	0.326256	10933.925781
2191.169353	1.258539	0.326256	12080.455078
2191.170371	1.224415	0.326256	13326.910156
2191.171310	1.193749	0.326256	14447.839844
2191.172179	1.165448	0.326256	15460.614258
2191.173284	1.107173	0.326256	16684.041016
2191.174179	0.233613	0.326256	16893.125000
2191.175040	0.089850	0.326256	16970.486328
2191.176098	0.090029	0.326256	17065.738281
2191.177062	0.089886	0.326256	17152.388672
2191.177929	0.089905	0.326256	17230.335937
2191.178793	0.089941	0.326256	17308.044922
2191.179910	0.089934	0.326256	17408.501953
2191.180812	0.089934	0.326256	17489.623047
2191.181676	0.089897	0.326256	17567.294922
2191.182727	0.089974	0.326256	17661.857422
2192.109823	1.110839	0.316596	544.310913
2192.110716	1.529000	0.316596	1909.708130
2192.111579	1.510953	0.316596	3213.660889
2192.112699	1.464481	0.316596	4853.879883
2192.113674	1.423799	0.316596	6242.083984
2192.114548	1.388152	0.316596	7455.328613
2192.115574	1.348378	0.316596	8838.763672
2192.116615	1.310750	0.316596	10203.253906
2192.117517	1.278717	0.316596	11356.656250
2192.118398	1.248757	0.316596	12456.811523
2192.119338	1.217380	0.316596	13601.149414
2192.120347	1.184894	0.316596	14796.707031
2192.121279	1.155835	0.316596	15873.945312
2192.122151	1.024208	0.316596	16767.054687
2192.123184	0.134648	0.316596	16906.146484
2192.124056	0.089850	0.316596	16984.496094
2192.124937	0.089908	0.316596	17063.705078
2192.125806	0.089952	0.316596	17141.873047
2192.126867	0.089960	0.316596	17237.320312
2192.127758	0.089894	0.316596	17317.416016
2192.128616	0.090011	0.316596	17394.644531
2192.129719	0.089971	0.316596	17493.882812
2192.130637	0.089949	0.316596	17576.455078
2192.131518	0.090015	0.316596	17655.757812
2193.197253	1.068992	0.326820	461.804382
2193.198122	1.524122	0.326820	1786.266602
2193.199230	1.505771	0.326820	3454.661133
2193.200219	1.463196	0.326820	4901.761719
2193.201094	1.426198	0.326820	6149.684570
2193.202125	1.384508	0.326820	7577.112305
2193.203168	1.344617	0.326820	8979.547852
2193.204066	1.311442	0.326820	10157.222656
2193.205003	1.278710	0.326820	11355.374023
2193.206072	1.242458	0.326820	12683.562500
2193.207020	1.210968	0.326820	13831.560547
2193.207884	1.182510	0.326820	14853.249023
2193.208945	1.150023	0.326820	16073.423828
2193.209970	0.694874	0.326820	16785.669922
2193.210866	0.095728	0.326820	16871.441406
2193.211825	0.089971	0.326820	16957.722656
2193.212867	0.089919	0.326820	17051.417969
2193.213774	0.089832	0.326820	17132.894531
2193.214633	0.089949	0.326820	17210.160156
2193.215710	0.090044	0.326820	17307.136719
2193.216715	0.089923	0.326820	17397.509766
2193.217592	0.089952	0.326820	17476.398437
2193.218572	0.089949	0.326820	17564.548828
2193.219612	0.089927	0.326820	17658.072266
2194.144703	1.076030	0.315593	460.540955
2194.145792	1.529216	0.315593	2125.857422
2194.146766	1.503208	0.315593	3589.981934
2194.147635	1.464888	0.315593	4862.969238
2194.148708	1.420236	0.315593	6386.881836
2194.149749	1.378667	0.315593	7822.074219
2194.150639	1.343935	0.315593	9018.176758
2194.151577	1.309614	0.315593	10246.594727
2194.152645	1.272169	0.315593	11605.271484
2194.153580	1.240653	0.315593	12765.282227
2194.154455	1.211162	0.315593	13825.048828
2194.155490	1.177705	0.315593	15043.973633
2194.156514	1.146416	0.315593	16217.903320
2194.157412	0.712687	0.315593	16857.896484
2194.158389	0.097617	0.315593	16953.267578
2194.159434	0.089919	0.315593	17047.232422
2194.160356	0.089927	0.315593	17130.144531
2194.161217	0.089967	0.315593	17207.605469
2194.162291	0.090011	0.315593	17304.277344
2194.163288	0.089905	0.315593	17393.912109
2194.164182	0.090029	0.315593	17474.398437
2194.165156	0.090000	0.315593	17562.058594
2194.166197	0.089993	0.315593	17655.740234
2194.167106	0.090004	0.315593	17737.552734
2195.233232	1.084856	0.324709	479.506317
2195.234113	1.526096	0.324709	1823.997070
2195.235130	1.509576	0.324709	3359.236328
2195.236179	1.463976	0.324709	4894.946777
2195.237074	1.426022	0.324709	6171.236328
2195.237953	1.390126	0.324709	7393.156738
2195.238821	1.354618	0.324709	8568.964844
2195.239862	1.317294	0.324709	9940.267578
2195.240762	1.285763	0.324709	11097.454102
2195.241640	1.255682	0.324709	12199.943359
2195.242635	1.222841	0.324709	13416.669922
2195.243581	1.191291	0.324709	14543.631836
2195.244510	1.162434	0.324709	15623.533203
2195.245383	1.104749	0.324709	16587.978516
2195.246449	0.187115	0.324709	16787.443359
2195.247338	0.089696	0.324709	16867.183594
2195.248219	0.089916	0.324709	16946.398437
2195.249206	0.089963	0.324709	17035.191406
2195.250151	0.089905	0.324709	17120.152344
2195.251028	0.089923	0.324709	17199.015625
2195.251956	0.089952	0.324709	17282.492187
2195.253002	0.089963	0.324709	17376.593750
2195.253897	0.089963	0.324709	17457.111328
2195.254761	0.089960	0.324709	17534.835937
2196.180667	1.050194	0.322010	444.232086
2196.181649	1.525082	0.322010	1941.862427
2196.182706	1.504559	0.322010	3532.181641
2196.183612	1.464217	0.322010	4858.762695
2196.184480	1.426267	0.322010	6096.762695
2196.185576	1.383578	0.322010	7613.164062
2196.186546	1.345492	0.322010	8918.291016
2196.187469	1.312247	0.322010	10129.495117
2196.188350	1.281361	0.322010	11258.374023
2196.189371	1.247878	0.322010	12532.458008
2196.190272	1.216164	0.322010	13628.222656
2196.191202	1.186611	0.322010	14731.771484
2196.192065	1.157791	0.322010	15730.944336
2196.193100	0.964834	0.322010	16729.546875
2196.194001	0.139658	0.322010	16855.378906
2196.194877	0.089795	0.322010	16934.039062
2196.195854	0.089952	0.322010	17021.921875
2196.196792	0.089890	0.322010	17106.238281
2196.197669	0.089916	0.322010	17185.093750
2196.198625	0.090026	0.322010	17271.158203
2196.199633	0.089875	0.322010	17361.751953
2196.200519	0.089971	0.322010	17441.466797
2196.201380	0.089978	0.322010	17518.937500
2196.202443	0.089879	0.322010	17614.478516
2197.268274	1.166001	0.329221	635.470520
2197.269336	1.530187	0.329221	2260.528809
2197.270234	1.502117	0.329221	3609.429687
2197.271120	1.461984	0.329221	4904.747070
2197.272216	1.417306	0.329221	6458.114258
2197.273176	1.378828	0.329221	7781.789062
2197.274049	1.345309	0.329221	8956.244141
2197.275071	1.307853	0.329221	10292.870117
2197.276111	1.271902	0.329221	11615.648437
2197.277007	1.241499	0.329221	12728.031250
2197.277939	1.210393	0.329221	13856.117187
2197.279010	1.175991	0.329221	15115.603516
2197.279965	1.146332	0.329221	16210.350586
2197.280835	0.739226	0.329221	16853.476562
2197.281909	0.093387	0.329221	16953.775391
2197.282908	0.089813	0.329221	17043.498047
2197.283799	0.089905	0.329221	17123.603516
2197.284772	0.089971	0.329221	17211.144531
2197.285827	0.089923	0.329221	17306.013672
2197.286745	0.089938	0.329221	17388.576172
2197.287604	0.089835	0.329221	17465.744141
2197.288679	0.089971	0.329221	17562.462891
2197.289671	0.089846	0.329221	17651.589844
2197.290552	0.089890	0.329221	17730.783203
2198.215689	1.118529	0.320769	561.501587
2198.216611	1.529421	0.320769	1971.628052
2198.217472	1.510334	0.320769	3272.025879
2198.218544	1.464419	0.320769	4841.882812
2198.219552	1.421982	0.320769	6275.241211
2198.220443	1.386072	0.320769	7510.231445
2198.221433	1.348198	0.320769	8844.947266
2198.222486	1.309871	0.320769	10224.241211
2198.223395	1.277743	0.320769	11385.709961
2198.224260	1.246868	0.320769	12464.250977
2198.225376	1.210986	0.320769	13815.711914
2198.226355	1.179551	0.320769	14970.492187
2198.227225	1.152268	0.320769	15972.965820
2198.228299	0.724486	0.320769	16751.064453
2198.229332	0.093783	0.320769	16847.941406
2198.230222	0.089894	0.320769	16927.947266
2198.231143	0.090015	0.320769	17010.851562
2198.232200	0.089978	0.320769	17105.958984
2198.233147	0.090011	0.320769	17191.199219
2198.234009	0.089908	0.320769	17268.701172
2198.235062	0.090066	0.320769	17363.541016
2198.236079	0.089967	0.320769	17455.037109
2198.236960	0.090004	0.320769	17534.330078
2198.237908	0.089960	0.320769	17619.611328
2199.303865	1.051824	0.329003	445.973267
2199.304921	1.528206	0.329003	2059.758301
2199.305955	1.501985	0.329003	3612.810547
2199.306851	1.462687	0.329003	4923.377930
2199.307803	1.422986	0.329003	6278.060547
2199.308865	1.380084	0.329003	7743.709961
2199.309790	1.344126	0.329003	8987.026367
2199.310665	1.311511	0.329003	10134.598633
2199.311730	1.274769	0.329003	11492.227539
2199.312749	1.240345	0.329003	12756.139648
2199.313640	1.210576	0.329003	13834.762695
2199.314627	1.179269	0.329003	14998.701172
2199.315687	1.146138	0.329003	16213.607422
2199.316607	0.680332	0.329003	16839.513672
2199.317469	0.096581	0.329003	16922.765625
2199.318555	0.090015	0.329003	17020.521484
2199.319544	0.089886	0.329003	17109.419922
2199.320440	0.089945	0.329003	17190.009766
2199.321439	0.090011	0.329003	17279.931641
2199.322482	0.090033	0.329003	17373.835937
2199.323369	0.089993	0.329003	17453.660156
2199.324247	0.089993	0.329003	17532.673828
2199.325317	0.090037	0.329003	17629.013672
2199.326278	0.089919	0.329003	17715.425781
2200.250806	1.071493	0.323867	451.098511
2200.251919	1.529048	0.323867	2152.928711
2200.252890	1.502021	0.323867	3611.391602
2200.253764	1.463628	0.323867	4890.602539
2200.254791	1.420624	0.323867	6349.583008
2200.255834	1.378832	0.323867	7787.704590
2200.256730	1.344195	0.323867	8992.103516
2200.257676	1.310035	0.323867	10231.397461
2200.258738	1.272513	0.323867	11582.806641
2200.259688	1.240613	0.323867	12761.388672
2200.260561	1.211228	0.323867	13818.791016
2200.261619	1.177562	0.323867	15064.652344
2200.262629	1.146152	0.323867	16222.266602
2200.263529	0.706154	0.323867	16857.804687
2200.264511	0.097280	0.323867	16953.333984
2200.265563	0.089996	0.323867	17048.009766
2200.266474	0.089952	0.323867	17129.957031
2200.267338	0.090037	0.323867	17207.748047
2200.268434	0.090135	0.323867	17306.537109
2200.269415	0.089960	0.323867	17394.787109
2200.270299	0.089934	0.323867	17474.289062
2200.271310	0.090000	0.323867	17565.279297
2200.272370	0.090048	0.323867	17660.730469
2200.273257	0.089945	0.323867	17740.511719
2201.337273	1.050535	0.331001	443.325653
2201.338280	1.525096	0.331001	1979.097778
2201.339282	1.505248	0.331001	3487.355957
2201.340169	1.466356	0.331001	4788.013672
2201.341035	1.428051	0.331001	6024.705566
2201.342133	1.385138	0.331001	7545.586914
2201.343047	1.349714	0.331001	8779.225586
2201.343919	1.316411	0.331001	9927.135742
2201.345019	1.278834	0.331001	11333.853516
2201.346006	1.245051	0.331001	12562.718750
2201.346900	1.215707	0.331001	13649.560547
2201.347885	1.183802	0.331001	14815.605469
2201.348947	1.151118	0.331001	16038.092773
2201.349846	0.862943	0.331001	16813.878906
2201.350738	0.113192	0.331001	16914.845703
2201.351829	0.089996	0.331001	17013.031250
2201.352795	0.090026	0.331001	17099.996094
2201.353661	0.089949	0.331001	17177.892578
2201.354713	0.090048	0.331001	17272.623047
2201.355729	0.090033	0.331001	17364.095703
2201.356615	0.090037	0.331001	17443.867187
2201.357550	0.090055	0.331001	17528.068359
2201.358604	0.089971	0.331001	17622.898437
2201.359534	0.089908	0.331001	17706.513672
2202.287883	1.091708	0.322743	553.495789
2202.288924	1.530443	0.322743	2146.687012
2202.289822	1.504669	0.322743	3497.879883
2202.290691	1.466213	0.322743	4772.019531
2202.291738	1.422550	0.322743	6261.429687
2202.292698	1.383940	0.322743	7590.012695
2202.293562	1.350212	0.322743	8756.596680
2202.294619	1.311757	0.322743	10143.123047
2202.295657	1.275403	0.322743	11466.991211
2202.296544	1.245113	0.322743	12571.407227
2202.297507	1.213356	0.322743	13739.869141
2202.298559	1.179324	0.322743	14980.517578
2202.299497	1.150056	0.322743	16059.270508
2202.300360	0.855081	0.322743	16797.205078
2202.301436	0.099580	0.322743	16904.353516
2202.302435	0.089916	0.322743	16994.179687
2202.303312	0.089989	0.322743	17073.099609
2202.304284	0.090073	0.322743	17160.650391
2202.305337	0.090059	0.322743	17255.482422
2202.306253	0.089989	0.322743	17337.912109
2202.307121	0.090055	0.322743	17416.080078
2202.308209	0.090073	0.322743	17514.080078
2202.309200	0.089952	0.322743	17603.222656
2202.310098	0.090018	0.322743	17684.058594
2203.370793	1.111637	0.332142	595.837341
2203.371852	1.529967	0.332142	2216.072510
2203.372783	1.501293	0.332142	3613.775879
2203.373647	1.462236	0.332142	4877.147949
2203.374723	1.418375	0.332142	6403.319824
2203.375733	1.377814	0.332142	7794.911621
2203.376615	1.344045	0.332142	8980.359375
2203.377594	1.308563	0.332142	10261.442383
2203.378643	1.272103	0.332142	11595.878906
2203.379541	1.241210	0.332142	12710.485352
2203.380412	1.210759	0.332142	13765.056641
2203.381516	1.176522	0.332142	15063.937500
2203.382503	1.146185	0.332142	16195.222656
2203.383384	0.725991	0.332142	16834.820312
2203.384422	0.094065	0.332142	16932.458984
2203.385464	0.089996	0.332142	17026.234375
2203.386355	0.090048	0.332142	17106.466797
2203.387278	0.090103	0.332142	17189.630859
2203.388354	0.090022	0.332142	17286.494141
2203.389301	0.089941	0.332142	17371.667969
2203.390173	0.090088	0.332142	17450.224609
2203.391221	0.090117	0.332142	17544.667969
2203.392240	0.089985	0.332142	17636.363281
2203.393138	0.090066	0.332142	17717.242187
2204.326847	1.065187	0.323871	453.769592
2204.327906	1.528059	0.323871	2071.984131
2204.328923	1.502373	0.323871	3599.897461
2204.329801	1.463511	0.323871	4884.859863
2204.330769	1.423147	0.323871	6262.465820
2204.331841	1.379967	0.323871	7741.790527
2204.332739	1.344628	0.323871	8949.266602
2204.333665	1.311251	0.323871	10163.485352
2204.334537	1.279687	0.323871	11279.373047
2204.335586	1.245278	0.323871	12585.669922
2204.336485	1.214883	0.323871	13677.849609
2204.337370	1.186208	0.323871	14727.644531
2204.338346	1.156249	0.323871	15856.143555
2204.339305	0.954276	0.323871	16771.294922
2204.340232	0.130166	0.323871	16891.958984
2204.341092	0.089941	0.323871	16969.308594
2204.342122	0.090011	0.323871	17062.019531
2204.343001	0.089985	0.323871	17141.117187
2204.343867	0.090051	0.323871	17219.101562
2204.344798	0.090099	0.323871	17302.984375
2204.345780	0.089985	0.323871	17391.349609
2204.346657	0.089945	0.323871	17470.230469
2204.347550	0.090077	0.323871	17550.669922
2204.348653	0.090103	0.323871	17650.052734
2205.403326	1.055409	0.331400	445.382568
2205.404381	1.528480	0.331400	2057.929199
2205.405399	1.502355	0.331400	3587.326172
2205.406287	1.463474	0.331400	4886.891113
2205.407259	1.423488	0.331400	6270.520996
2205.408309	1.380648	0.331400	7720.201660
2205.409236	1.344869	0.331400	8966.895508
2205.410100	1.312386	0.331400	10100.796875
2205.411173	1.275758	0.331400	11469.685547
2205.412180	1.241689	0.331400	12720.066406
2205.413059	1.212151	0.331400	13785.546875
2205.414040	1.180371	0.331400	14943.491211
2205.415121	1.147346	0.331400	16183.772461
2205.416026	0.725925	0.331400	16840.734375
2205.416893	0.098914	0.331400	16926.492187
2205.417990	0.089949	0.331400	17025.166016
2205.418961	0.089993	0.331400	17112.548828
2205.419827	0.089971	0.331400	17190.462891
2205.420908	0.090037	0.331400	17287.792969
2205.421943	0.089993	0.331400	17380.935547
2205.422835	0.089956	0.331400	17461.175781
2205.423752	0.089941	0.331400	17543.652344
2205.424823	0.090048	0.331400	17640.093750
2205.425779	0.089971	0.331400	17726.105469
2206.363967	1.156458	0.323231	644.146851
2206.365025	1.530337	0.323231	2263.243164
2206.365934	1.501077	0.323231	3627.721924
2206.366799	1.461277	0.323231	4891.726562
2206.367940	1.415281	0.323231	6506.562012
2206.368915	1.376605	0.323231	7848.751953
2206.369786	1.342954	0.323231	9018.464844
2206.370842	1.304982	0.323231	10396.525391
2206.371873	1.269064	0.323231	11704.929687
2206.372767	1.239060	0.323231	12812.649414
2206.373692	1.207870	0.323231	13929.928711
2206.374750	1.174204	0.323231	15172.236328
2206.375692	1.145372	0.323231	16251.176758
2206.376557	0.703037	0.323231	16859.304687
2206.377615	0.093329	0.323231	16958.046875
2206.378631	0.090022	0.323231	17049.509766
2206.379514	0.090000	0.323231	17128.980469
2206.380466	0.090088	0.323231	17214.744141
2206.381528	0.090128	0.323231	17310.460937
2206.382437	0.090037	0.323231	17392.304687
2206.383303	0.090044	0.323231	17470.283203
2206.384343	0.090092	0.323231	17563.978516
2206.385352	0.089934	0.323231	17654.722656
2206.386243	0.089956	0.323231	17734.873047
2207.435726	1.073295	0.335783	471.176361
2207.436602	1.525342	0.335783	1807.375854
2207.437464	1.513986	0.335783	3112.431641
2207.438527	1.469982	0.335783	4675.022461
2207.439412	1.431793	0.335783	5942.159180
2207.440291	1.396077	0.335783	7169.310547
2207.441248	1.359294	0.335783	8470.155273
2207.442195	1.323296	0.335783	9723.316406
2207.443094	1.291362	0.335783	10884.250977
2207.444027	1.259216	0.335783	12059.099609
2207.445103	1.223646	0.335783	13375.743164
2207.446003	1.194005	0.335783	14450.347656
2207.446869	1.165891	0.335783	15460.009766
2207.447918	1.106840	0.335783	16621.083984
2207.448870	0.233478	0.335783	16843.355469
2207.449746	0.089875	0.335783	16922.085937
2207.450668	0.090073	0.335783	17005.132812
2207.451732	0.089985	0.335783	17100.876953
2207.452611	0.090018	0.335783	17180.003906
2207.453515	0.090007	0.335783	17261.371094
2207.454591	0.090018	0.335783	17358.230469
2207.455537	0.089974	0.335783	17443.345703
2207.456402	0.090084	0.335783	17521.269531
2207.457414	0.090077	0.335783	17612.427734
2208.402373	1.070999	0.323021	465.884369
2208.403239	1.524122	0.323021	1785.774414
2208.404365	1.505178	0.323021	3480.604980
2208.405341	1.463020	0.323021	4908.512695
2208.406209	1.425949	0.323021	6146.235840
2208.407289	1.382600	0.323021	7639.443848
2208.408339	1.342452	0.323021	9049.018555
2208.409236	1.309493	0.323021	10223.633789
2208.410178	1.276853	0.323021	11426.429687
2208.411234	1.240979	0.323021	12736.903320
2208.412171	1.209489	0.323021	13870.194336
2208.413039	1.181386	0.323021	14895.636719
2208.414088	1.148983	0.323021	16100.919922
2208.415115	0.664999	0.323021	16783.873047
2208.415993	0.095658	0.323021	16867.861328
2208.416974	0.090033	0.323021	16956.183594
2208.418014	0.090070	0.323021	17049.855469
2208.418930	0.090066	0.323021	17132.355469
2208.419787	0.089934	0.323021	17209.429687
2208.420832	0.090088	0.323021	17303.572266
2208.421832	0.089941	0.323021	17393.513672
2208.422720	0.089963	0.323021	17473.400391
2208.423697	0.090081	0.323021	17561.408203
2208.424745	0.089996	0.323021	17655.724609
2209.468870	1.067417	0.337080	463.259003
2209.469737	1.524104	0.337080	1784.657227
2209.470812	1.506962	0.337080	3404.641113
2209.471804	1.463456	0.337080	4856.389160
2209.472706	1.425989	0.337080	6142.630859
2209.473691	1.386266	0.337080	7508.102539
2209.474744	1.345899	0.337080	8925.333984
2209.475649	1.312313	0.337080	10112.977539
2209.476514	1.280563	0.337080	11220.664062
2209.477642	1.243583	0.337080	12623.425781
2209.478617	1.211261	0.337080	13804.405273
2209.479490	1.183055	0.337080	14837.212891
2209.480519	1.151067	0.337080	16021.661133
2209.481560	0.725947	0.337080	16777.373047
2209.482456	0.097225	0.337080	16864.486328
2209.483381	0.089960	0.337080	16947.699219
2209.484434	0.090066	0.337080	17042.539062
2209.485373	0.089952	0.337080	17127.003906
2209.486233	0.089919	0.337080	17204.333984
2209.487271	0.090029	0.337080	17297.785156
2209.488280	0.089993	0.337080	17388.587891
2209.489168	0.090040	0.337080	17468.542969
2209.490126	0.090040	0.337080	17554.800781
2209.491180	0.090037	0.337080	17649.699219
2210.438854	1.071053	0.325177	465.908234
2210.439726	1.525093	0.325177	1795.789062
2210.440587	1.513945	0.325177	3099.295898
2210.441643	1.470396	0.325177	4652.033691
2210.442527	1.432679	0.325177	5918.522461
2210.443404	1.396707	0.325177	7143.434082
2210.444403	1.358588	0.325177	8500.663086
2210.445326	1.322955	0.325177	9721.750977
2210.446219	1.291571	0.325177	10875.124023
2210.447190	1.258638	0.325177	12097.261719
2210.448215	1.224064	0.325177	13351.926758
2210.449119	1.194280	0.325177	14431.555664
2210.449988	1.166126	0.325177	15444.918945
2210.451062	1.099329	0.325177	16625.597656
2210.452012	0.221891	0.325177	16836.394531
2210.452892	0.089857	0.325177	16915.468750
2210.453865	0.090004	0.325177	17003.042969
2210.454882	0.089938	0.325177	17094.509766
2210.455777	0.089963	0.325177	17175.027344
2210.456729	0.090059	0.325177	17260.763672
2210.457759	0.090073	0.325177	17353.539062
2210.458682	0.089919	0.325177	17436.535156
2210.459547	0.089960	0.325177	17514.349609
2210.460600	0.090095	0.325177	17609.220703
2211.503051	1.071632	0.342418	474.733032
2211.504151	1.529202	0.342418	2156.854980
2211.505111	1.501750	0.342418	3598.535400
2211.505984	1.463478	0.342418	4876.151367
2211.507027	1.420001	0.342418	6357.212891
2211.508051	1.378704	0.342418	7769.005371
2211.508953	1.343983	0.342418	8981.278320
2211.509895	1.309896	0.342418	10215.200195
2211.510954	1.272751	0.342418	11563.043945
2211.511898	1.241151	0.342418	12734.690430
2211.512764	1.211320	0.342418	13783.693359
2211.513830	1.177866	0.342418	15039.298828
2211.514833	1.146764	0.342418	16189.502930
2211.515725	0.736754	0.342418	16846.687500
2211.516715	0.099196	0.342418	16944.890625
2211.517758	0.089985	0.342418	17038.746094
2211.518662	0.089919	0.342418	17120.033203
2211.519519	0.089989	0.342418	17197.154297
2211.520590	0.090037	0.342418	17293.583984
2211.521585	0.089923	0.342418	17383.056641
2211.522456	0.090007	0.342418	17461.453125
2211.523442	0.090029	0.342418	17550.222656
2211.524490	0.090040	0.342418	17644.583984
2211.525396	0.089996	0.342418	17726.121094
2212.473631	1.147072	0.330820	587.300659
2212.474662	1.530242	0.330820	2164.979736
2212.475550	1.504468	0.330820	3500.947021
2212.476516	1.462844	0.330820	4914.054687
2212.477575	1.418002	0.330820	6415.718262
2212.478508	1.380395	0.330820	7703.626953
2212.479381	1.345968	0.330820	8878.657227
2212.480469	1.307179	0.330820	10300.868164
2212.481469	1.271858	0.330820	11572.726562
2212.482371	1.241917	0.330820	12692.935547
2212.483347	1.209522	0.330820	13873.428711
2212.484409	1.175599	0.330820	15121.915039
2212.485324	1.147028	0.330820	16171.445312
2212.486194	0.730822	0.330820	16807.259766
2212.487308	0.092970	0.330820	16910.828125
2212.488270	0.089916	0.330820	16997.326172
2212.489139	0.089938	0.330820	17075.482422
2212.490198	0.090007	0.330820	17170.800781
2212.491224	0.089934	0.330820	17263.072266
2212.492105	0.090004	0.330820	17342.365234
2212.493018	0.089967	0.330820	17424.505859
2212.494085	0.089996	0.330820	17520.531250
2212.495029	0.089912	0.330820	17605.408203
2212.495889	0.089960	0.330820	17682.773437
2213.538746	1.050143	0.340593	442.110107
2213.539694	1.523101	0.340593	1886.009521
2213.540755	1.504786	0.340593	3482.587891
2213.541686	1.463646	0.340593	4845.242676
2213.542603	1.425645	0.340593	6152.558594
2213.543480	1.389419	0.340593	7371.079102
2213.544516	1.349813	0.340593	8769.485352
2213.545420	1.316462	0.340593	9959.567383
2213.546302	1.285386	0.340593	11093.277344
2213.547255	1.253181	0.340593	12287.558594
2213.548246	1.219754	0.340593	13496.333984
2213.549177	1.189424	0.340593	14603.687500
2213.550045	1.161757	0.340593	15612.091797
2213.551077	1.070969	0.340593	16717.332031
2213.551968	0.195249	0.340593	16891.298828
2213.552832	0.089919	0.340593	16968.988281
2213.553718	0.090015	0.340593	17048.742187
2213.554767	0.089971	0.340593	17143.121094
2213.555662	0.089890	0.340593	17223.572266
2213.556522	0.090011	0.340593	17300.982422
2213.557611	0.090051	0.340593	17399.048828
2213.558521	0.089974	0.340593	17480.925781
2213.559399	0.089963	0.340593	17559.914062
2213.560384	0.090055	0.340593	17648.617187
2214.507981	1.083662	0.333483	477.894958
2214.508864	1.525836	0.333483	1825.208252
2214.509727	1.512971	0.333483	3130.902344
2214.510833	1.467114	0.333483	4753.530762
2214.511754	1.427933	0.333483	6068.657227
2214.512637	1.392063	0.333483	7297.848633
2214.513638	1.353768	0.333483	8652.970703
2214.514640	1.316162	0.333483	9971.765625
2214.515539	1.284646	0.333483	11126.662109
2214.516563	1.250229	0.333483	12406.897461
2214.517614	1.215447	0.333483	13684.332031
2214.518509	1.185754	0.333483	14745.582031
2214.519385	1.156981	0.333483	15759.097656
2214.520480	0.886421	0.333483	16729.728516
2214.521442	0.111606	0.333483	16837.093750
2214.522309	0.089879	0.333483	16915.019531
2214.523335	0.089993	0.333483	17007.351562
2214.524360	0.089938	0.333483	17099.537109
2214.525242	0.090018	0.333483	17178.933594
2214.526147	0.090037	0.333483	17260.416016
2214.527208	0.090018	0.333483	17355.925781
2214.528155	0.089919	0.333483	17441.080078
2214.529025	0.089996	0.333483	17519.376953
2214.530046	0.090081	0.333483	17611.349609
2215.575227	1.052183	0.337386	446.125397
2215.576181	1.522881	0.337386	1898.953735
2215.577252	1.504321	0.337386	3510.082031
2215.578179	1.463434	0.337386	4866.685059
2215.579054	1.425809	0.337386	6114.268066
2215.580122	1.383190	0.337386	7591.514648
2215.581137	1.344097	0.337386	8955.772461
2215.582030	1.311724	0.337386	10127.141602
2215.583010	1.277955	0.337386	11379.538086
2215.584059	1.242330	0.337386	12682.742187
2215.584978	1.211235	0.337386	13795.867187
2215.585844	1.182422	0.337386	14819.844727
2215.586944	1.149060	0.337386	16083.810547
2215.587918	0.729576	0.337386	16794.417969
2215.588803	0.098427	0.337386	16881.525391
2215.589807	0.090062	0.337386	16971.947266
2215.590854	0.090007	0.337386	17066.185547
2215.591750	0.090044	0.337386	17146.865234
2215.592632	0.090066	0.337386	17226.302734
2215.593717	0.090051	0.337386	17324.007812
2215.594664	0.090073	0.337386	17409.306641
2215.595524	0.089985	0.337386	17486.693359
2215.596565	0.090110	0.337386	17580.498047
2215.597603	0.089978	0.337386	17673.894531
2216.541893	1.065414	0.335896	460.258789
2216.542882	1.524133	0.335896	1967.626587
2216.543941	1.503014	0.335896	3559.318359
2216.544849	1.463035	0.335896	4887.753906
2216.545712	1.425308	0.335896	6117.794434
2216.546803	1.382725	0.335896	7626.347168
2216.547800	1.344023	0.335896	8966.338867
2216.548693	1.311559	0.335896	10137.560547
2216.549567	1.280878	0.335896	11257.047852
2216.550575	1.247003	0.335896	12514.027344
2216.551496	1.215363	0.335896	13633.375977
2216.552409	1.186117	0.335896	14716.300781
2216.553282	1.158193	0.335896	15727.403320
2216.554324	0.975439	0.335896	16743.810547
2216.555225	0.138735	0.335896	16868.810547
2216.556102	0.089879	0.335896	16947.634766
2216.557082	0.090022	0.335896	17035.855469
2216.558029	0.090011	0.335896	17121.095703
2216.558942	0.090029	0.335896	17203.292969
2216.559806	0.089971	0.335896	17281.027344
2216.560844	0.090037	0.335896	17374.486328
2216.561729	0.089974	0.335896	17454.113281
2216.562585	0.090044	0.335896	17531.191406
2216.563606	0.090018	0.335896	17623.099609
2217.611711	1.052245	0.336980	447.204071
2217.612686	1.523166	0.336980	1932.291382
2217.613747	1.503820	0.336980	3527.843994
2217.614678	1.462844	0.336980	4889.751953
2217.615541	1.425546	0.336980	6119.998047
2217.616605	1.383541	0.336980	7592.085937
2217.617607	1.344785	0.336980	8939.560547
2217.618496	1.312145	0.336980	10106.057617
2217.619472	1.278076	0.336980	11353.459961
2217.620533	1.242363	0.336980	12671.607422
2217.621448	1.211470	0.336980	13780.102539
2217.622314	1.182466	0.336980	14804.118164
2217.623426	1.149031	0.336980	16081.839844
2217.624410	0.731927	0.336980	16802.056641
2217.625277	0.098829	0.336980	16887.742187
2217.626319	0.090007	0.336980	16981.529297
2217.627355	0.089919	0.336980	17074.685547
2217.628247	0.089945	0.336980	17154.916016
2217.629145	0.090000	0.336980	17235.736328
2217.630235	0.090018	0.336980	17333.855469
2217.631190	0.089945	0.336980	17419.753906
2217.632054	0.089930	0.336980	17497.453125
2217.633087	0.090117	0.336980	17590.544922
2217.634109	0.089941	0.336980	17682.464844
2218.575296	1.058130	0.337821	450.763275
2218.576340	1.527715	0.337821	2045.697632
2218.577358	1.502289	0.337821	3575.027832
2218.578246	1.463500	0.337821	4874.615234
2218.579195	1.424139	0.337821	6226.123535
2218.580235	1.381838	0.337821	7663.235352
2218.581168	1.345957	0.337821	8919.013672
2218.582029	1.313730	0.337821	10050.135742
2218.583102	1.276809	0.337821	11420.152344
2218.584111	1.242627	0.337821	12673.962891
2218.584997	1.212623	0.337821	13748.347656
2218.585961	1.181814	0.337821	14887.616211
2218.587027	1.148844	0.337821	16112.284180
2218.587938	0.783706	0.337821	16826.240234
2218.588809	0.103484	0.337821	16916.375000
2218.589890	0.089971	0.337821	17013.632812
2218.590873	0.089894	0.337821	17101.998047
2218.591762	0.089938	0.337821	17181.953125
2218.592735	0.090044	0.337821	17269.566406
2218.593789	0.089985	0.337821	17364.410156
2218.594697	0.089985	0.337821	17446.117187
2218.595559	0.089960	0.337821	17523.662109
2218.596661	0.090048	0.337821	17622.894531
2218.597642	0.089985	0.337821	17711.169922
2219.648952	1.048026	0.332919	442.266998
2219.649886	1.522573	0.332919	1864.350342
2219.650882	1.508240	0.332919	3366.557129
2219.651801	1.468293	0.332919	4715.918945
2219.652681	1.430900	0.332919	5975.110352
2219.653782	1.386936	0.332919	7502.126953
2219.654687	1.351326	0.332919	8725.077148
2219.655557	1.318997	0.332919	9872.604492
2219.656628	1.281625	0.332919	11245.224609
2219.657606	1.248179	0.332919	12465.943359
2219.658488	1.218468	0.332919	13540.631836
2219.659399	1.188545	0.332919	14623.396484
2219.660479	1.155985	0.332919	15871.860352
2219.661361	1.016946	0.332919	16768.806641
2219.662224	0.162902	0.332919	16909.390625
2219.663256	0.089960	0.332919	17002.228516
2219.664210	0.089982	0.332919	17088.070312
2219.665089	0.089989	0.332919	17167.169922
2219.665953	0.090029	0.332919	17244.955078
2219.667067	0.090040	0.332919	17345.259766
2219.667964	0.090011	0.332919	17426.000000
2219.668825	0.090066	0.332919	17503.546875
2219.669950	0.090004	0.332919	17604.800781
2219.670914	0.090018	0.332919	17691.578125
2220.609858	1.170557	0.333753	635.612244
2220.610832	1.530710	0.333753	2126.524170
2220.611713	1.505695	0.333753	3453.041016
2220.612619	1.465389	0.333753	4780.683594
2220.613706	1.421503	0.333753	6325.856934
2220.614596	1.385035	0.333753	7558.538574
2220.615462	1.351099	0.333753	8728.589844
2220.616503	1.313467	0.333753	10095.909180
2220.617472	1.279157	0.333753	11335.412109
2220.618333	1.249644	0.333753	12411.355469
2220.619395	1.214030	0.333753	13700.655273
2220.620462	1.180188	0.333753	14959.916016
2220.621346	1.152242	0.333753	15978.498047
2220.622282	0.837122	0.333753	16762.042969
2220.623363	0.099049	0.333753	16869.115234
2220.624298	0.090000	0.333753	16953.265625
2220.625169	0.089974	0.333753	17031.632812
2220.626219	0.090092	0.333753	17126.228516
2220.627226	0.089941	0.333753	17216.798828
2220.628120	0.089982	0.333753	17297.242187
2220.629083	0.090081	0.333753	17383.990234
2220.630138	0.090040	0.333753	17478.982422
2220.631067	0.090044	0.333753	17562.632812
2220.631930	0.090015	0.333753	17640.316406
2221.685510	1.091704	0.329032	545.851990
2221.686589	1.529081	0.329032	2195.730225
2221.687520	1.501007	0.329032	3593.167969
2221.688392	1.462485	0.329032	4868.455078
2221.689441	1.418848	0.329032	6356.826172
2221.690458	1.377843	0.329032	7758.092773
2221.691360	1.343415	0.329032	8969.853516
2221.692332	1.308611	0.329032	10241.823242
2221.693393	1.271301	0.329032	11590.673828
2221.694312	1.240268	0.329032	12730.480469
2221.695176	1.210312	0.329032	13776.190430
2221.696273	1.176010	0.329032	15066.273437
2221.697278	1.145046	0.329032	16217.044922
2221.698182	0.671393	0.329032	16823.984375
2221.699178	0.094666	0.329032	16918.271484
2221.700232	0.090026	0.329032	17013.158203
2221.701125	0.089993	0.329032	17093.521484
2221.701986	0.090022	0.329032	17171.031250
2221.703078	0.090051	0.329032	17269.367187
2221.704039	0.089927	0.329032	17355.787109
2221.704899	0.089952	0.329032	17433.146484
2221.705981	0.090084	0.329032	17530.617187
2221.707008	0.089923	0.329032	17622.968750
2221.707892	0.089941	0.329032	17702.476562
2222.643930	1.074137	0.340923	486.584045
2222.644792	1.525038	0.340923	1801.166748
2222.645809	1.509053	0.340923	3335.873535
2222.646845	1.464598	0.340923	4853.197266
2222.647723	1.426417	0.340923	6105.591797
2222.648622	1.388767	0.340923	7354.093262
2222.649718	1.347202	0.340923	8830.626953
2222.650679	1.312460	0.340923	10091.900391
2222.651553	1.281621	0.340923	11212.037109
2222.652593	1.246406	0.340923	12508.299805
2222.653622	1.212012	0.340923	13755.459961
2222.654515	1.183092	0.340923	14811.960937
2222.655468	1.153513	0.340923	15911.258789
2222.656527	0.788635	0.340923	16746.423828
2222.657465	0.100052	0.340923	16840.273437
2222.658388	0.089883	0.340923	16923.234375
2222.659251	0.089897	0.340923	17000.816406
2222.660279	0.089857	0.340923	17093.189453
2222.661158	0.089897	0.340923	17172.208984
2222.662033	0.089982	0.340923	17250.943359
2222.662976	0.089912	0.340923	17335.730469
2222.663978	0.089956	0.340923	17425.867187
2222.664874	0.089996	0.340923	17506.503906
2222.665759	0.089945	0.340923	17586.105469
2223.720403	1.090763	0.330063	487.571045
2223.721283	1.525712	0.330063	1830.197266
2223.722300	1.508518	0.330063	3364.360107
2223.723348	1.463470	0.330063	4898.077148
2223.724243	1.424883	0.330063	6173.347168
2223.725116	1.388042	0.330063	7385.107910
2223.726214	1.347158	0.330063	8864.287109
2223.727182	1.311958	0.330063	10134.262695
2223.728048	1.281233	0.330063	11243.810547
2223.729088	1.246161	0.330063	12539.818359
2223.730132	1.211876	0.330063	13805.017578
2223.731011	1.182751	0.330063	14844.656250
2223.731949	1.153385	0.330063	15926.531250
2223.733046	0.752633	0.330063	16752.169922
2223.733968	0.098093	0.330063	16842.611328
2223.734833	0.089857	0.330063	16920.337891
2223.735872	0.090011	0.330063	17013.859375
2223.736895	0.089930	0.330063	17105.857422
2223.737783	0.089956	0.330063	17185.738281
2223.738746	0.090077	0.330063	17272.482422
2223.739796	0.089912	0.330063	17366.890625
2223.740733	0.089963	0.330063	17451.185547
2223.741594	0.089938	0.330063	17528.621094
2223.742662	0.090066	0.330063	17624.810547
2224.678700	1.129677	0.340412	606.636353
2224.679765	1.529656	0.340412	2235.719727
2224.680689	1.500399	0.340412	3622.088379
2224.681556	1.461376	0.340412	4889.101074
2224.682645	1.416866	0.340412	6432.068359
2224.683626	1.377290	0.340412	7783.189941
2224.684516	1.343518	0.340412	8978.920898
2224.685516	1.307615	0.340412	10286.535156
2224.686579	1.270880	0.340412	11637.480469
2224.687467	1.240173	0.340412	12738.753906
2224.688334	1.209719	0.340412	13787.580078
2224.689449	1.175647	0.340412	15098.426758
2224.690409	1.146046	0.340412	16198.630859
2224.691274	0.743606	0.340412	16841.849609
2224.692291	0.095533	0.340412	16939.007812
2224.693361	0.090015	0.340412	17035.324219
2224.694234	0.089989	0.340412	17113.884766
2224.695160	0.089956	0.340412	17197.183594
2224.696231	0.090055	0.340412	17293.632812
2224.697182	0.090029	0.340412	17379.250000
2224.698048	0.089930	0.340412	17457.128906
2224.699080	0.090033	0.340412	17550.042969
2224.700106	0.090000	0.340412	17642.382812
2224.700999	0.090000	0.340412	17722.751953
2225.755148	1.094744	0.325724	555.035034
2225.756207	1.529205	0.325724	2174.463379
2225.757138	1.501622	0.325724	3572.473633
2225.758012	1.462833	0.325724	4850.989746
2225.759069	1.418983	0.325724	6350.854980
2225.760080	1.378520	0.325724	7744.539062
2225.760972	1.344291	0.325724	8943.646484
2225.761851	1.312244	0.325724	10097.108398
2225.762837	1.278406	0.325724	11357.616211
2225.763797	1.245073	0.325724	12552.886719
2225.764730	1.214015	0.325724	13685.562500
2225.765599	1.185509	0.325724	14715.769531
2225.766631	1.154106	0.325724	15906.807617
2225.767514	0.977421	0.325724	16769.869141
2225.768385	0.144335	0.325724	16895.583984
2225.769332	0.089993	0.325724	16980.806641
2225.770315	0.089985	0.325724	17069.261719
2225.771196	0.089949	0.325724	17148.505859
2225.772076	0.090073	0.325724	17227.769531
2225.773185	0.090018	0.325724	17327.599609
2225.774079	0.089963	0.325724	17408.027344
2225.774942	0.090037	0.325724	17485.728516
2225.775989	0.090066	0.325724	17580.027344
2225.776955	0.089993	0.325724	17666.960937
2226.713801	1.068428	0.342398	469.039795
2226.714682	1.524935	0.342398	1812.507812
2226.715543	1.513425	0.342398	3115.566895
2226.716580	1.469571	0.342398	4639.512695
2226.717482	1.431570	0.342398	5930.788574
2226.718364	1.395656	0.342398	7161.756836
2226.719338	1.358408	0.342398	8484.846680
2226.720289	1.322351	0.342398	9742.402344
2226.721174	1.290930	0.342398	10884.875000
2226.722112	1.258989	0.342398	12065.806641
2226.723158	1.224155	0.342398	13346.273437
2226.724066	1.194261	0.342398	14430.663086
2226.724937	1.166122	0.342398	15446.355469
2226.725994	1.104510	0.342398	16613.822266
2226.726948	0.231171	0.342398	16834.359375
2226.727824	0.089894	0.342398	16913.105469
2226.728744	0.089974	0.342398	16995.882812
2226.729809	0.089930	0.342398	17091.658203
2226.730692	0.089985	0.342398	17171.115234
2226.731558	0.089930	0.342398	17248.994141
2226.732596	0.090088	0.342398	17342.505859
2226.733558	0.089982	0.342398	17429.068359
2226.734428	0.089989	0.342398	17507.359375
2226.735437	0.090011	0.342398	17598.179687
2227.790526	1.054665	0.322985	447.178162
2227.791415	1.522621	0.322985	1800.788086
2227.792522	1.504636	0.322985	3466.420410
2227.793478	1.463287	0.322985	4865.323242
2227.794354	1.426179	0.322985	6114.656250
2227.795383	1.384688	0.322985	7539.500000
2227.796417	1.344928	0.322985	8930.155273
2227.797317	1.312028	0.322985	10110.980469
2227.798245	1.279559	0.322985	11298.412109
2227.799321	1.243059	0.322985	12635.943359
2227.800267	1.211173	0.322985	13781.712891
2227.801136	1.182957	0.322985	14809.702148
2227.802205	1.150210	0.322985	16039.276367
2227.803200	0.753757	0.322985	16789.265625
2227.804084	0.100342	0.322985	16877.968750
2227.805063	0.090015	0.322985	16966.093750
2227.806106	0.089960	0.322985	17059.921875
2227.807024	0.089996	0.322985	17142.539062
2227.807884	0.090015	0.322985	17219.951172
2227.808959	0.090033	0.322985	17316.736328
2227.809953	0.089989	0.322985	17406.185547
2227.810824	0.089949	0.322985	17484.531250
2227.811814	0.090114	0.322985	17573.744141
2227.812870	0.090040	0.322985	17668.826172
2228.750039	1.067355	0.336166	474.972839
2228.750903	1.524818	0.336166	1792.415771
2228.751915	1.508394	0.336166	3318.910156
2228.752960	1.463430	0.336166	4848.194824
2228.753852	1.425864	0.336166	6120.065430
2228.754801	1.387368	0.336166	7436.677734
2228.755865	1.346129	0.336166	8868.958984
2228.756812	1.311672	0.336166	10111.112305
2228.757682	1.280669	0.336166	11225.293945
2228.758739	1.245194	0.336166	12541.463867
2228.759760	1.211049	0.336166	13777.944336
2228.760662	1.182111	0.336166	14844.208008
2228.761632	1.152316	0.336166	15961.954102
2228.762697	0.736110	0.336166	16745.910156
2228.763615	0.097148	0.336166	16835.091797
2228.764478	0.089985	0.336166	16912.750000
2228.765550	0.090084	0.336166	17009.320312
2228.766545	0.089996	0.336166	17098.867187
2228.767444	0.089989	0.336166	17179.767578
2228.768429	0.090015	0.336166	17268.431641
2228.769468	0.090004	0.336166	17361.945312
2228.770366	0.089960	0.336166	17442.728516
2228.771225	0.089989	0.336166	17520.029297
2228.772322	0.090062	0.336166	17618.828125
2229.824221	1.076111	0.327134	481.021545
2229.825088	1.524928	0.327134	1803.134033
2229.826144	1.507775	0.327134	3395.344238
2229.827017	1.468374	0.327134	4677.234863
2229.827895	1.431270	0.327134	5933.889648
2229.828785	1.394077	0.327134	7174.618164
2229.829825	1.354208	0.327134	8582.994141
2229.830720	1.321014	0.327134	9765.301758
2229.831607	1.289905	0.327134	10909.447266
2229.832604	1.256444	0.327134	12162.122070
2229.833533	1.224148	0.327134	13299.355469
2229.834462	1.193936	0.327134	14408.521484
2229.835332	1.165822	0.327134	15422.786133
2229.836373	1.131815	0.327134	16601.005859
2229.837265	0.298136	0.327134	16866.943359
2229.838121	0.090081	0.327134	16944.052734
2229.839207	0.090007	0.327134	17041.800781
2229.840105	0.089945	0.327134	17122.572266
2229.840983	0.089908	0.327134	17201.511719
2229.841949	0.089978	0.327134	17288.429687
2229.842971	0.089886	0.327134	17380.292969
2229.843864	0.089908	0.327134	17460.582031
2229.844728	0.089960	0.327134	17538.306641
2229.845788	0.090040	0.327134	17633.750000
2230.784955	1.051941	0.336279	444.971008
2230.785991	1.527521	0.336279	2027.482422
2230.786893	1.507277	0.336279	3387.045898
2230.787775	1.468594	0.336279	4682.345703
2230.788663	1.429838	0.336279	5952.041504
2230.789707	1.388328	0.336279	7401.455566
2230.790598	1.353867	0.336279	8607.750977
2230.791475	1.321659	0.336279	9766.845703
2230.792489	1.286770	0.336279	11071.630859
2230.793391	1.254719	0.336279	12203.387695
2230.794264	1.225657	0.336279	13273.385742
2230.795250	1.193536	0.336279	14450.212891
2230.796259	1.161398	0.336279	15622.063477
2230.797163	1.126036	0.336279	16640.000000
2230.798033	0.284447	0.336279	16887.468750
2230.799105	0.089908	0.336279	16983.851562
2230.800044	0.089839	0.336279	17068.210937
2230.800923	0.089960	0.336279	17147.285156
2230.801898	0.089989	0.336279	17235.025391
2230.802912	0.089956	0.336279	17326.240234
2230.803801	0.089934	0.336279	17406.191406
2230.804664	0.089952	0.336279	17483.820312
2230.805740	0.089967	0.336279	17580.625000
2230.806661	0.089854	0.336279	17663.380859
2231.857596	1.065344	0.328842	452.771301
2231.858686	1.528312	0.328842	2118.631104
2231.859659	1.502249	0.328842	3580.318848
2231.860530	1.463928	0.328842	4855.400391
2231.861596	1.419598	0.328842	6368.692383
2231.862626	1.378217	0.328842	7788.255371
2231.863514	1.343921	0.328842	8981.657227
2231.864438	1.310032	0.328842	10192.126953
2231.865511	1.272316	0.328842	11557.321289
2231.866456	1.240785	0.328842	12729.863281
2231.867328	1.211429	0.328842	13786.229492
2231.868370	1.177998	0.328842	15013.703125
2231.869394	1.146105	0.328842	16187.314453
2231.870295	0.726650	0.328842	16842.027344
2231.871260	0.098789	0.328842	16937.359375
2231.872311	0.089923	0.328842	17031.869141
2231.873236	0.089974	0.328842	17115.095703
2231.874106	0.089963	0.328842	17193.363281
2231.875180	0.090048	0.328842	17290.074219
2231.876182	0.089927	0.328842	17380.181641
2231.877070	0.089989	0.328842	17460.091797
2231.878043	0.090059	0.328842	17547.718750
2231.879089	0.090026	0.328842	17641.884766
2231.879999	0.089905	0.328842	17723.697266
2232.822532	1.117280	0.337930	550.819153
2232.823417	1.527993	0.337930	1903.093018
2232.824353	1.509174	0.337930	3315.679443
2232.825425	1.462460	0.337930	4883.436523
2232.826378	1.422645	0.337930	6239.217773
2232.827246	1.387028	0.337930	7443.157715
2232.828308	1.346503	0.337930	8873.143555
2232.829324	1.309600	0.337930	10203.696289
2232.830215	1.278080	0.337930	11342.465820
2232.831183	1.245813	0.337930	12548.413086
2232.832229	1.210638	0.337930	13814.741211
2232.833164	1.180803	0.337930	14918.791992
2232.834031	1.152642	0.337930	15918.131836
2232.835107	0.767285	0.337930	16743.730469
2232.836108	0.096086	0.337930	16839.912109
2232.836987	0.089846	0.337930	16918.886719
2232.837989	0.089985	0.337930	17009.052734
2232.839033	0.090000	0.337930	17103.013672
2232.839924	0.089927	0.337930	17183.138672
2232.840790	0.089952	0.337930	17261.037109
2232.841870	0.090015	0.337930	17358.253906
2232.842837	0.089963	0.337930	17445.248047
2232.843720	0.090018	0.337930	17524.734375
2232.844729	0.090073	0.337930	17615.619141
2233.891613	1.138308	0.322071	578.260498
2233.892612	1.529854	0.322071	2106.584229
2233.893505	1.505156	0.322071	3450.688721
2233.894478	1.463090	0.322071	4874.274902
2233.895537	1.418910	0.322071	6376.900391
2233.896451	1.381150	0.322071	7639.271484
2233.897377	1.346169	0.322071	8885.824219
2233.898244	1.313075	0.322071	10024.259766
2233.899305	1.277216	0.322071	11379.385742
2233.900186	1.247139	0.322071	12478.115234
2233.901063	1.217648	0.322071	13545.992187
2233.902052	1.186630	0.322071	14719.569336
2233.902966	1.156622	0.322071	15776.722656
2233.903884	1.037633	0.322071	16729.269531
2233.904764	0.174144	0.322071	16882.515625
2233.905795	0.089839	0.322071	16975.138672
2233.906688	0.089916	0.322071	17055.433594
2233.907560	0.089930	0.322071	17133.853516
2233.908486	0.089989	0.322071	17217.183594
2233.909477	0.089960	0.322071	17306.333984
2233.910350	0.089832	0.322071	17384.757812
2233.911208	0.089919	0.322071	17461.908203
2233.912328	0.089930	0.322071	17562.630859
2233.913214	0.089901	0.322071	17642.283203
2234.857671	1.063630	0.335469	459.488312
2234.858678	1.524987	0.335469	1995.149780
2234.859606	1.507071	0.335469	3393.712158
2234.860487	1.468594	0.335469	4687.542969
2234.861469	1.428303	0.335469	6090.136719
2234.862488	1.386215	0.335469	7502.689453
2234.863383	1.351432	0.335469	8712.220703
2234.864248	1.318400	0.335469	9852.636719
2234.865315	1.281343	0.335469	11219.829102
2234.866260	1.249449	0.335469	12400.558594
2234.867145	1.219731	0.335469	13480.020508
2234.868116	1.188688	0.335469	14634.236328
2234.869129	1.156340	0.335469	15805.609375
2234.870029	1.044646	0.335469	16745.791016
2234.870997	0.169607	0.335469	16909.970703
2234.872042	0.089963	0.335469	17003.982422
2234.872973	0.089974	0.335469	17087.748047
2234.873836	0.089989	0.335469	17165.408203
2234.874898	0.090059	0.335469	17261.050781
2234.875885	0.089923	0.335469	17349.804687
2234.876773	0.089908	0.335469	17429.642578
2234.877761	0.089941	0.335469	17518.503906
2234.878799	0.089993	0.335469	17611.916016
2234.879706	0.089945	0.335469	17693.496094
2235.925248	1.111377	0.325692	547.908813
2235.926161	1.528337	0.325692	1943.280884
2235.927035	1.509540	0.325692	3262.618652
2235.928111	1.463646	0.325692	4837.501953
2235.929110	1.421510	0.325692	6257.590332
2235.930013	1.385185	0.325692	7508.413086
2235.930999	1.347521	0.325692	8837.068359
2235.932052	1.309054	0.325692	10215.501953
2235.932964	1.277032	0.325692	11380.155273
2235.933830	1.246388	0.325692	12459.527344
2235.934941	1.210455	0.325692	13804.342773
2235.935918	1.179126	0.325692	14956.348633
2235.936791	1.152228	0.325692	15962.243164
2235.937867	0.724105	0.325692	16741.380859
2235.938893	0.094091	0.325692	16837.917969
2235.939778	0.089843	0.325692	16917.427734
2235.940697	0.089949	0.325692	17000.089844
2235.941754	0.090004	0.325692	17095.224609
2235.942700	0.089864	0.325692	17180.236328
2235.943565	0.089938	0.325692	17258.033203
2235.944614	0.090044	0.325692	17352.490234
2235.945636	0.089843	0.325692	17444.308594
2235.946510	0.089890	0.325692	17522.873047
2235.947467	0.090026	0.325692	17609.027344
2236.894756	1.135591	0.331231	584.829285
2236.895753	1.529608	0.331231	2109.848633
2236.896630	1.505497	0.331231	3430.169434
2236.897622	1.462255	0.331231	4880.726074
2236.898682	1.418207	0.331231	6384.025391
2236.899586	1.381450	0.331231	7632.856445
2236.900464	1.345946	0.331231	8814.596680
2236.901581	1.306908	0.331231	10274.413086
2236.902553	1.273334	0.331231	11512.093750
2236.903426	1.243520	0.331231	12597.687500
2236.904447	1.209675	0.331231	13832.765625
2236.905486	1.176412	0.331231	15055.058594
2236.906381	1.148459	0.331231	16082.929687
2236.907313	0.748070	0.331231	16780.130859
2236.908391	0.093864	0.331231	16881.316406
2236.909340	0.089941	0.331231	16966.669922
2236.910203	0.090026	0.331231	17044.361328
2236.911253	0.090004	0.331231	17138.865234
2236.912249	0.089850	0.331231	17228.355469
2236.913133	0.089960	0.331231	17307.878906
2236.914089	0.089996	0.331231	17393.916016
2236.915127	0.090037	0.331231	17487.375000
2236.916050	0.089978	0.331231	17570.423828
2236.916906	0.089974	0.331231	17647.441406
2237.958458	1.168737	0.326224	645.142578
2237.959398	1.529539	0.326224	2082.908691
2237.960327	1.504698	0.326224	3480.773437
2237.961194	1.465576	0.326224	4751.427734
2237.962222	1.423407	0.326224	6214.689941
2237.963103	1.387592	0.326224	7437.158203
2237.963982	1.353713	0.326224	8627.072266
2237.964986	1.317239	0.326224	9949.580078
2237.965934	1.282947	0.326224	11165.813477
2237.966860	1.251617	0.326224	12324.811523
2237.967733	1.221859	0.326224	13391.494141
2237.968757	1.188849	0.326224	14608.875000
2237.969660	1.160259	0.326224	15656.588867
2237.970530	1.099559	0.326224	16613.205078
2237.971590	0.190975	0.326224	16815.638672
2237.972527	0.089788	0.326224	16899.769531
2237.973410	0.089905	0.326224	16979.156250
2237.974338	0.089960	0.326224	17062.638672
2237.975377	0.089897	0.326224	17156.042969
2237.976267	0.089952	0.326224	17236.101562
2237.977129	0.089927	0.326224	17313.619141
2237.978177	0.089930	0.326224	17407.867187
2237.979124	0.089897	0.326224	17493.000000
2237.979986	0.089982	0.326224	17570.564453
2238.930615	1.061960	0.330800	446.023407
2238.931709	1.528216	0.330800	2117.892090
2238.932624	1.504200	0.330800	3494.235352
2238.933487	1.465129	0.330800	4758.642090
2238.934583	1.420635	0.330800	6315.657715
2238.935573	1.380348	0.330800	7682.202148
2238.936459	1.346569	0.330800	8875.261719
2238.937469	1.310068	0.330800	10198.430664
2238.938517	1.273736	0.330800	11533.306641
2238.939409	1.242975	0.330800	12642.040039
2238.940290	1.212239	0.330800	13710.022461
2238.941390	1.178265	0.330800	15006.114258
2238.942342	1.148500	0.330800	16099.486328
2238.943222	0.835265	0.330800	16834.519531
2238.944243	0.099928	0.330800	16936.546875
2238.945282	0.089912	0.330800	17029.964844
2238.946176	0.089883	0.330800	17110.320312
2238.947100	0.089974	0.330800	17193.457031
2238.948170	0.089952	0.330800	17289.707031
2238.949115	0.089886	0.330800	17374.650391
2238.949985	0.089886	0.330800	17452.851562
2238.951047	0.089938	0.330800	17548.365234
2238.952052	0.089941	0.330800	17638.755859
2238.952939	0.089923	0.330800	17718.517578
2239.991580	1.135532	0.329809	582.528076
2239.992491	1.528616	0.329809	1975.097046
2239.993351	1.508661	0.329809	3272.545410
2239.994456	1.462485	0.329809	4888.591797
2239.995444	1.420543	0.329809	6292.088379
2239.996325	1.384636	0.329809	7511.953125
2239.997312	1.346825	0.329809	8841.269531
2239.998373	1.308464	0.329809	10229.550781
2239.999278	1.276333	0.329809	11384.631836
2240.000143	1.245725	0.329809	12462.183594
2240.001243	1.210294	0.329809	13793.507812
2240.002217	1.179082	0.329809	14941.933594
2240.003087	1.152089	0.329809	15944.250977
2240.004118	0.774935	0.329809	16743.208984
2240.005156	0.095508	0.329809	16842.345703
2240.006045	0.089846	0.329809	16922.218750
2240.006977	0.089949	0.329809	17006.050781
2240.008051	0.089923	0.329809	17102.628906
2240.008993	0.089908	0.329809	17187.322266
2240.009855	0.089824	0.329809	17264.750000
2240.010897	0.089989	0.329809	17358.519531
2240.011908	0.089824	0.329809	17449.332031
2240.012798	0.089905	0.329809	17529.347656
2240.013744	0.089985	0.329809	17614.474609
2240.965321	1.080099	0.327340	470.923096
2240.966209	1.525291	0.327340	1825.381104
2240.967210	1.508752	0.327340	3335.642334
2240.968266	1.463265	0.327340	4880.850586
2240.969172	1.424429	0.327340	6171.382812
2240.970039	1.387555	0.327340	7374.393066
2240.971148	1.346726	0.327340	8867.912109
2240.972103	1.311705	0.327340	10120.590820
2240.972966	1.281281	0.327340	11226.335937
2240.974032	1.245363	0.327340	12553.892578
2240.975064	1.211067	0.327340	13803.713867
2240.975952	1.182144	0.327340	14853.457031
2240.976872	1.153447	0.327340	15914.628906
2240.977945	0.772712	0.327340	16743.750000
2240.978890	0.099192	0.327340	16837.486328
2240.979746	0.089923	0.327340	16914.460937
2240.980786	0.090018	0.327340	17008.080078
2240.981815	0.089963	0.327340	17100.652344
2240.982708	0.090000	0.327340	17181.021484
2240.983661	0.090048	0.327340	17266.835937
2240.984711	0.089945	0.327340	17361.277344
2240.985628	0.089901	0.327340	17443.716797
2240.986554	0.089927	0.327340	17526.988281
2240.987422	0.089978	0.327340	17605.089844
2242.026426	1.061195	0.324701	449.946686
2242.027503	1.527858	0.324701	2095.449463
2242.028504	1.500875	0.324701	3597.825684
2242.029396	1.461815	0.324701	4901.764648
2242.030281	1.424868	0.324701	6162.772949
2242.031264	1.385493	0.324701	7524.712891
2242.032218	1.348257	0.324701	8810.950195
2242.033145	1.314430	0.324701	10029.426758
2242.034012	1.283291	0.324701	11142.040039
2242.035058	1.248552	0.324701	12448.025391
2242.035948	1.218622	0.324701	13532.598633
2242.036819	1.189918	0.324701	14569.017578
2242.037777	1.160021	0.324701	15680.317383
2242.038746	1.059525	0.324701	16706.998047
2242.039669	0.182102	0.324701	16875.078125
2242.040545	0.089934	0.324701	16953.861328
2242.041584	0.089960	0.324701	17047.330078
2242.042484	0.089978	0.324701	17128.310547
2242.043348	0.089978	0.324701	17206.050781
2242.044390	0.089993	0.324701	17299.822266
2242.045369	0.089934	0.324701	17387.867187
2242.046250	0.090015	0.324701	17467.169922
2242.047125	0.090022	0.324701	17545.939453
2242.048216	0.089978	0.324701	17644.105469
2243.001138	1.145248	0.320222	623.014832
2243.002074	1.529667	0.320222	2054.782959
2243.002952	1.506984	0.320222	3377.914551
2243.003921	1.465393	0.320222	4797.880371
2243.004954	1.421565	0.320222	6266.356934
2243.005845	1.385427	0.320222	7500.772461
2243.006710	1.351304	0.320222	8669.650391
2243.007765	1.313328	0.320222	10055.210937
2243.008716	1.279962	0.320222	11272.455078
2243.009600	1.249925	0.320222	12377.388672
2243.010550	1.218402	0.320222	13534.871094
2243.011586	1.184656	0.320222	14762.174805
2243.012477	1.156615	0.320222	15792.718750
2243.013340	1.049015	0.320222	16698.019531
2243.014412	0.143108	0.320222	16851.431641
2243.015347	0.089828	0.320222	16935.419922
2243.016205	0.089916	0.320222	17012.568359
2243.017248	0.090103	0.320222	17106.544922
2243.018262	0.089960	0.320222	17197.763672
2243.019154	0.090000	0.320222	17278.042969
2243.020095	0.090026	0.320222	17362.757812
2243.021149	0.090062	0.320222	17457.683594
2243.022083	0.089934	0.320222	17541.681641
2243.022954	0.090000	0.320222	17620.072266
2244.062147	1.065564	0.323058	456.061371
2244.063022	1.524093	0.323058	1789.642822
2244.064020	1.509412	0.323058	3296.035645
2244.065016	1.465671	0.323058	4755.844238
2244.065916	1.428171	0.323058	6041.198242
2244.066901	1.388192	0.323058	7408.567383
2244.067952	1.348004	0.323058	8825.319336
2244.068858	1.314272	0.323058	10016.049805
2244.069723	1.282383	0.323058	11125.310547
2244.070836	1.246168	0.323058	12512.295898
2244.071799	1.214216	0.323058	13681.585937
2244.072668	1.186088	0.323058	14712.295898
2244.073728	1.152784	0.323058	15934.247070
2244.074773	0.801053	0.323058	16771.347656
2244.075671	0.102686	0.323058	16863.558594
2244.076609	0.089905	0.323058	16947.888672
2244.077658	0.089971	0.323058	17042.267578
2244.078592	0.089927	0.323058	17126.259766
2244.079453	0.089956	0.323058	17203.712891
2244.080490	0.089993	0.323058	17297.035156
2244.081507	0.089890	0.323058	17388.453125
2244.082384	0.089934	0.323058	17467.326172
2244.083316	0.090026	0.323058	17551.230469
2244.084378	0.089989	0.323058	17646.798828
2245.035214	1.070314	0.321313	470.938019
2245.036078	1.523815	0.321313	1787.513916
2245.037155	1.505922	0.321313	3409.391602
2245.038167	1.461870	0.321313	4888.804199
2245.039063	1.424337	0.321313	6165.010254
2245.040023	1.385698	0.321313	7495.280273
2245.041088	1.345012	0.321313	8927.718750
2245.041994	1.311588	0.321313	10116.017578
2245.042862	1.279761	0.321313	11226.849609
2245.043957	1.243949	0.321313	12588.973633
2245.044947	1.210664	0.321313	13787.531250
2245.045829	1.182447	0.321313	14830.450195
2245.046833	1.151536	0.321313	15986.591797
2245.047911	0.721523	0.321313	16764.394531
2245.048786	0.097885	0.321313	16850.042969
2245.049652	0.089982	0.321313	16927.966797
2245.050757	0.090026	0.321313	17027.445312
2245.051708	0.089919	0.321313	17112.958984
2245.052564	0.089956	0.321313	17189.960937
2245.053603	0.090007	0.321313	17283.478516
2245.054642	0.090000	0.321313	17376.988281
2245.055534	0.089978	0.321313	17457.248047
2245.056466	0.090059	0.321313	17541.183594
2245.057525	0.090029	0.321313	17636.525391
2246.098128	1.086691	0.315799	484.664032
2246.099010	1.525499	0.315799	1830.154419
2246.100024	1.508053	0.315799	3359.320068
2246.101076	1.462793	0.315799	4898.178223
2246.101992	1.423469	0.315799	6202.076172
2246.102865	1.386621	0.315799	7412.596680
2246.103973	1.345605	0.315799	8903.527344
2246.104937	1.310537	0.315799	10166.884766
2246.105800	1.279882	0.315799	11271.422852
2246.106837	1.245040	0.315799	12562.529297
2246.107881	1.210280	0.315799	13826.061523
2246.108767	1.181312	0.315799	14872.704102
2246.109712	1.152312	0.315799	15961.638672
2246.110774	0.748700	0.315799	16756.757812
2246.111711	0.098068	0.315799	16848.646484
2246.112571	0.089967	0.315799	16926.017578
2246.113605	0.090073	0.315799	17019.152344
2246.114627	0.089963	0.315799	17111.095703
2246.115525	0.089978	0.315799	17191.896484
2246.116486	0.090055	0.315799	17278.439453
2246.117538	0.089985	0.315799	17373.103516
2246.118468	0.089978	0.315799	17456.783203
2246.119335	0.090007	0.315799	17534.820312
2246.120411	0.090044	0.315799	17631.707031
2247.067422	1.140513	0.321765	578.239929
2247.068354	1.529216	0.321765	2003.469482
2247.069219	1.508306	0.321765	3308.153809
2247.070283	1.462936	0.321765	4864.717773
2247.071293	1.420415	0.321765	6299.336914
2247.072178	1.384713	0.321765	7524.808105
2247.073162	1.347367	0.321765	8850.617187
2247.074217	1.308798	0.321765	10231.398437
2247.075126	1.276630	0.321765	11391.854492
2247.075986	1.246381	0.321765	12463.742187
2247.077079	1.211045	0.321765	13787.414062
2247.078079	1.178837	0.321765	14966.250977
2247.078960	1.151371	0.321765	15980.608398
2247.079968	0.763554	0.321765	16750.269531
2247.081035	0.095281	0.321765	16851.933594
2247.081916	0.089960	0.321765	16931.187500
2247.082820	0.089897	0.321765	17012.455078
2247.083695	0.089952	0.321765	17091.164062
2247.084676	0.089960	0.321765	17179.414062
2247.085608	0.089919	0.321765	17263.218750
2247.086493	0.089978	0.321765	17342.849609
2247.087455	0.089985	0.321765	17429.416016
2247.088387	0.089956	0.321765	17513.255859
2247.089313	0.089919	0.321765	17596.521484
2248.134606	1.081901	0.312109	479.281952
2248.135493	1.525338	0.312109	1832.256958
2248.136358	1.512308	0.312109	3140.403809
2248.137449	1.467048	0.312109	4740.953613
2248.138361	1.428036	0.312109	6043.322266
2248.139244	1.392169	0.312109	7272.607422
2248.140261	1.353461	0.312109	8649.077148
2248.141270	1.315624	0.312109	9976.541016
2248.142148	1.284653	0.312109	11104.466797
2248.143133	1.251079	0.312109	12336.779297
2248.144203	1.216000	0.312109	13637.899414
2248.145088	1.185894	0.312109	14687.415039
2248.145963	1.157483	0.312109	15700.212891
2248.147073	0.896730	0.312109	16695.582031
2248.148047	0.112687	0.312109	16805.339844
2248.148914	0.089923	0.312109	16883.302734
2248.149946	0.090092	0.312109	16976.277344
2248.150989	0.090018	0.312109	17070.166016
2248.151877	0.089934	0.312109	17150.027344
2248.152793	0.090070	0.312109	17232.531250
2248.153859	0.090040	0.312109	17328.513672
2248.154817	0.089971	0.312109	17414.705078
2248.155685	0.089982	0.312109	17492.808594
2248.156733	0.089996	0.312109	17587.125000
2249.100296	1.123238	0.322747	557.126282
2249.101256	1.529205	0.322747	2025.163330
2249.102130	1.508075	0.322747	3343.220703
2249.103188	1.461995	0.322747	4890.010742
2249.104238	1.418368	0.322747	6379.296875
2249.105131	1.382032	0.322747	7613.451660
2249.106063	1.346144	0.322747	8868.057617
2249.107140	1.306882	0.322747	10275.570312
2249.108086	1.274081	0.322747	11480.850586
2249.108954	1.244645	0.322747	12561.202148
2249.110016	1.209163	0.322747	13845.333008
2249.111031	1.176760	0.322747	15039.744141
2249.111923	1.148837	0.322747	16064.505859
2249.112894	0.742397	0.322747	16785.373047
2249.113935	0.094739	0.322747	16883.996094
2249.114858	0.089989	0.322747	16967.056641
2249.115720	0.090011	0.322747	17044.646484
2249.116775	0.090040	0.322747	17139.638672
2249.117775	0.089960	0.322747	17229.597656
2249.118652	0.089971	0.322747	17308.501953
2249.119629	0.090062	0.322747	17396.492187
2249.120664	0.090084	0.322747	17489.728516
2249.121574	0.089985	0.322747	17571.615234
2249.122432	0.090015	0.322747	17648.847656
2250.170114	1.118456	0.312906	550.280212
2250.171113	1.529531	0.312906	2078.281982
2250.172008	1.505706	0.312906	3425.888672
2250.173005	1.462793	0.312906	4884.292969
2250.174074	1.418500	0.312906	6400.668945
2250.174978	1.381183	0.312906	7649.258301
2250.175870	1.346081	0.312906	8849.962891
2250.176952	1.307618	0.312906	10264.805664
2250.177910	1.274289	0.312906	11485.575195
2250.178781	1.244828	0.312906	12569.820312
2250.179827	1.210009	0.312906	13835.489258
2250.180854	1.176782	0.312906	15044.044922
2250.181741	1.149236	0.312906	16063.416992
2250.182701	0.754120	0.312906	16787.371094
2250.183760	0.095424	0.312906	16888.423828
2250.184692	0.089993	0.312906	16972.296875
2250.185548	0.090048	0.312906	17049.376953
2250.186587	0.090051	0.312906	17142.939453
2250.187614	0.090004	0.312906	17235.373047
2250.188506	0.090011	0.312906	17315.662109
2250.189384	0.090059	0.312906	17394.734375
2250.190353	0.090004	0.312906	17481.947266
2250.191297	0.090007	0.312906	17566.914062
2250.192219	0.089949	0.312906	17649.847656
2251.133969	1.112827	0.325039	566.429016
2251.134848	1.527210	0.325039	1908.846191
2251.135778	1.508815	0.325039	3312.043945
2251.136658	1.470293	0.325039	4605.901855
2251.137632	1.428666	0.325039	5997.422363
2251.138592	1.389884	0.325039	7331.710937
2251.139488	1.355226	0.325039	8545.993164
2251.140449	1.320326	0.325039	9814.826172
2251.141383	1.286371	0.325039	11016.296875
2251.142315	1.255005	0.325039	12185.960937
2251.143182	1.225118	0.325039	13248.138672
2251.144219	1.192039	0.325039	14484.283203
2251.145106	1.163998	0.325039	15516.749023
2251.145978	1.137334	0.325039	16508.503906
2251.146948	0.365859	0.325039	16863.386719
2251.147891	0.089916	0.325039	16948.177734
2251.148769	0.090073	0.325039	17027.261719
2251.149722	0.090084	0.325039	17113.111328
2251.150765	0.090055	0.325039	17207.039062
2251.151660	0.090059	0.325039	17287.640625
2251.152524	0.090029	0.325039	17365.425781
2251.153579	0.090121	0.325039	17460.503906
2251.154535	0.089971	0.325039	17546.515625
2251.155412	0.090011	0.325039	17625.455078
2251.156358	0.090059	0.325039	17710.650391
2252.207343	1.110370	0.306795	528.536011
2252.208223	1.526418	0.306795	1871.784302
2252.209198	1.508687	0.306795	3342.753662
2252.210263	1.462386	0.306795	4900.195312
2252.211191	1.422957	0.306795	6220.699219
2252.212054	1.387115	0.306795	7417.779785
2252.213113	1.346689	0.306795	8843.923828
2252.214117	1.309926	0.306795	10159.088867
2252.215009	1.278999	0.306795	11299.956055
2252.216002	1.245762	0.306795	12536.997070
2252.217057	1.210188	0.306795	13813.745117
2252.217982	1.180488	0.306795	14905.697266
2252.218855	1.152195	0.306795	15911.563477
2252.219948	0.751447	0.306795	16732.894531
2252.220918	0.095614	0.306795	16825.640625
2252.221807	0.089971	0.306795	16905.625000
2252.222800	0.090099	0.306795	16995.093750
2252.223858	0.090040	0.306795	17090.355469
2252.224748	0.089982	0.306795	17170.439453
2252.225631	0.090073	0.306795	17249.974609
2252.226716	0.090044	0.306795	17347.671875
2252.227678	0.090059	0.306795	17434.308594
2252.228539	0.089993	0.306795	17511.792969
2252.229568	0.090135	0.306795	17604.542969
2253.167116	1.121118	0.328516	563.922424
2253.168000	1.527730	0.328516	1914.435303
2253.168889	1.509166	0.328516	3256.084229
2253.169991	1.462529	0.328516	4867.791504
2253.170945	1.422594	0.328516	6224.946289
2253.171818	1.386969	0.328516	7435.770020
2253.172873	1.346649	0.328516	8856.484375
2253.173897	1.309343	0.328516	10197.251953
2253.174796	1.277626	0.328516	11345.837891
2253.175744	1.246004	0.328516	12527.048828
2253.176791	1.210895	0.328516	13794.855469
2253.177725	1.180620	0.328516	14897.554687
2253.178590	1.153173	0.328516	15895.048828
2253.179670	0.779268	0.328516	16736.658203
2253.180676	0.096665	0.328516	16833.902344
2253.181553	0.089927	0.328516	16912.767578
2253.182537	0.090070	0.328516	17001.396484
2253.183591	0.090048	0.328516	17096.306641
2253.184496	0.089985	0.328516	17177.744141
2253.185356	0.090088	0.328516	17255.218750
2253.186411	0.090135	0.328516	17350.312500
2253.187401	0.090011	0.328516	17439.423828
2253.188293	0.089974	0.328516	17519.681641
2253.189263	0.090073	0.328516	17607.052734
2254.241724	1.053109	0.309245	444.412079
2254.242773	1.526558	0.309245	2045.771118
2254.243796	1.501355	0.309245	3581.657227
2254.244684	1.462562	0.309245	4880.412598
2254.245642	1.422806	0.309245	6243.460937
2254.246696	1.379810	0.309245	7697.780273
2254.247639	1.343925	0.309245	8965.101562
2254.248500	1.311508	0.309245	10094.309570
2254.249561	1.274641	0.309245	11446.704102
2254.250574	1.240671	0.309245	12703.503906
2254.251466	1.210836	0.309245	13783.570312
2254.252345	1.182795	0.309245	14823.247070
2254.253321	1.152971	0.309245	15948.546875
2254.254263	0.888164	0.309245	16785.197266
2254.255190	0.111929	0.309245	16888.955078
2254.256058	0.089971	0.309245	16967.048828
2254.257088	0.090011	0.309245	17059.759766
2254.257974	0.090029	0.309245	17139.525391
2254.258851	0.090073	0.309245	17218.519531
2254.259794	0.089996	0.309245	17303.386719
2254.260779	0.089963	0.309245	17392.000000
2254.261643	0.090066	0.309245	17469.816406
2254.262513	0.090062	0.309245	17548.169922
2254.263619	0.090048	0.309245	17647.761719
2255.202855	1.143776	0.318087	589.044434
2255.203865	1.529462	0.318087	2133.800781
2255.204745	1.504109	0.318087	3457.416504
2255.205631	1.465818	0.318087	4756.131348
2255.206631	1.424304	0.318087	6180.435547
2255.207565	1.385610	0.318087	7474.595703
2255.208491	1.350286	0.318087	8724.959961
2255.209362	1.317557	0.318087	9872.552734
2255.210408	1.281511	0.318087	11213.013672
2255.211305	1.250977	0.318087	12335.139648
2255.212186	1.221138	0.318087	13410.961914
2255.213160	1.190028	0.318087	14570.048828
2255.214123	1.159677	0.318087	15686.817383
2255.215008	1.113560	0.318087	16672.318359
2255.215957	0.244603	0.318087	16904.447266
2255.217004	0.089927	0.318087	16998.599609
2255.217898	0.090092	0.318087	17079.140625
2255.218754	0.090015	0.318087	17156.193359
2255.219786	0.090095	0.318087	17249.171875
2255.220733	0.090051	0.318087	17334.451172
2255.221610	0.090011	0.318087	17413.390625
2255.222530	0.090084	0.318087	17496.267578
2255.223595	0.090055	0.318087	17592.175781
2255.224493	0.090048	0.318087	17673.039062
2256.277690	1.050941	0.300386	443.497192
2256.278578	1.522306	0.300386	1795.304810
2256.279677	1.504578	0.300386	3448.835449
2256.280639	1.462987	0.300386	4856.229004
2256.281509	1.426183	0.300386	6097.007812
2256.282556	1.383973	0.300386	7546.027832
2256.283580	1.344822	0.300386	8923.125000
2256.284477	1.311760	0.300386	10099.774414
2256.285428	1.278944	0.300386	11316.050781
2256.286474	1.243359	0.300386	12616.604492
2256.287411	1.212048	0.300386	13752.293945
2256.288276	1.183348	0.300386	14775.890625
2256.289340	1.150814	0.300386	16000.357422
2256.290354	0.766846	0.300386	16777.939453
2256.291232	0.101558	0.300386	16867.107422
2256.292215	0.089978	0.300386	16955.556641
2256.293253	0.090062	0.300386	17049.041016
2256.294166	0.089996	0.300386	17131.207031
2256.295023	0.089974	0.300386	17208.314453
2256.296072	0.090022	0.300386	17302.748047
2256.297074	0.089967	0.300386	17392.894531
2256.297967	0.089996	0.300386	17473.261719
2256.298948	0.090062	0.300386	17561.613281
2256.300002	0.090029	0.300386	17656.503906
2257.237192	1.060756	0.322570	459.307190
2257.238069	1.523961	0.322570	1795.821045
2257.239086	1.507430	0.322570	3328.877930
2257.240131	1.462778	0.322570	4857.481445
2257.241027	1.424945	0.322570	6134.232422
2257.241972	1.386724	0.322570	7444.686523
2257.243034	1.345671	0.322570	8873.789062
2257.243984	1.311222	0.322570	10119.450195
2257.244856	1.280021	0.322570	11235.627930
2257.245924	1.244344	0.322570	12564.587891
2257.246931	1.210591	0.322570	13783.652344
2257.247827	1.181733	0.322570	14842.485352
2257.248800	1.151927	0.322570	15963.310547
2257.249850	0.749890	0.322570	16750.695312
2257.250768	0.098529	0.322570	16841.144531
2257.251628	0.089956	0.322570	16918.505859
2257.252715	0.090044	0.322570	17016.382812
2257.253709	0.089971	0.322570	17105.814453
2257.254588	0.089967	0.322570	17184.894531
2257.255590	0.090055	0.322570	17275.128906
2257.256643	0.089996	0.322570	17369.894531
2257.257533	0.090018	0.322570	17450.011719
2257.258390	0.090106	0.322570	17527.232422
2257.259493	0.090055	0.322570	17626.562500
2258.312373	1.056405	0.295004	442.633667
2258.313428	1.528623	0.295004	2055.331055
2258.314325	1.506086	0.295004	3406.290527
2258.315208	1.467748	0.295004	4702.312012
2258.316176	1.427761	0.295004	6084.384766
2258.317142	1.387760	0.295004	7424.960937
2258.318071	1.351989	0.295004	8680.958008
2258.318941	1.319484	0.295004	9828.909180
2258.320000	1.282822	0.295004	11187.417969
2258.320895	1.252071	0.295004	12308.021484
2258.321761	1.222921	0.295004	13367.071289
2258.322823	1.188647	0.295004	14629.415039
2258.323769	1.158827	0.295004	15725.665039
2258.324638	1.107144	0.295004	16687.773437
2258.325559	0.238315	0.295004	16907.261719
2258.326625	0.089897	0.295004	17003.091797
2258.327520	0.089897	0.295004	17083.550781
2258.328386	0.089996	0.295004	17161.488281
2258.329394	0.090033	0.295004	17252.242187
2258.330367	0.090000	0.295004	17339.812500
2258.331249	0.089945	0.295004	17419.144531
2258.332133	0.089967	0.295004	17498.675781
2258.333225	0.089930	0.295004	17596.878906
2258.334123	0.090018	0.295004	17677.714844
2259.271362	1.062847	0.324000	460.212646
2259.272225	1.523016	0.324000	1774.575684
2259.273286	1.507342	0.324000	3373.866211
2259.274166	1.468440	0.324000	4666.093262
2259.275038	1.431548	0.324000	5914.402832
2259.276007	1.392880	0.324000	7264.103027
2259.276987	1.354563	0.324000	8591.574219
2259.277857	1.321622	0.324000	9741.385742
2259.278749	1.288843	0.324000	10891.033203
2259.279856	1.252679	0.324000	12277.749023
2259.280753	1.222068	0.324000	13373.943359
2259.281622	1.193697	0.324000	14411.266602
2259.282653	1.161185	0.324000	15608.448242
2259.283619	1.100764	0.324000	16671.787109
2259.284502	0.229449	0.324000	16874.390625
2259.285391	0.089894	0.324000	16954.306641
2259.286495	0.090000	0.324000	17053.666016
2259.287387	0.089993	0.324000	17133.939453
2259.288247	0.089905	0.324000	17211.257812
2259.289284	0.090044	0.324000	17304.632812
2259.290256	0.089952	0.324000	17392.066406
2259.291116	0.089996	0.324000	17469.462891
2259.292195	0.090040	0.324000	17566.617187
2259.293228	0.089967	0.324000	17659.552734
2260.345863	1.123246	0.300257	564.992676
2260.346830	1.529180	0.300257	2043.709473
2260.347704	1.507529	0.300257	3361.290039
2260.348738	1.462335	0.300257	4873.344727
2260.349788	1.418848	0.300257	6363.134766
2260.350680	1.382424	0.300257	7596.257324
2260.351619	1.346587	0.300257	8860.702148
2260.352684	1.307750	0.300257	10253.456055
2260.353639	1.274458	0.300257	11470.563477
2260.354508	1.244802	0.300257	12552.296875
2260.355585	1.209174	0.300257	13854.577148
2260.356606	1.176365	0.300257	15055.645508
2260.357503	1.148302	0.300257	16085.671875
2260.358477	0.718608	0.300257	16785.595703
2260.359530	0.093765	0.300257	16884.330078
2260.360435	0.089989	0.300257	16965.769531
2260.361294	0.090004	0.300257	17043.082031
2260.362360	0.090103	0.300257	17139.130859
2260.363362	0.089982	0.300257	17229.292969
2260.364246	0.090011	0.300257	17308.863281
2260.365237	0.090084	0.300257	17398.136719
2260.366278	0.090000	0.300257	17491.826172
2260.367177	0.089982	0.300257	17572.718750
2260.368033	0.090059	0.300257	17649.808594
2261.307325	1.049718	0.324125	441.931274
2261.308286	1.522185	0.324125	1904.751099
2261.309345	1.502999	0.324125	3496.427246
2261.310280	1.462332	0.324125	4863.707031
2261.311151	1.425102	0.324125	6104.971191
2261.312213	1.382721	0.324125	7573.420898
2261.313215	1.344258	0.324125	8920.367187
2261.314113	1.311621	0.324125	10098.203125
2261.315097	1.277465	0.324125	11355.228516
2261.316153	1.241748	0.324125	12666.514648
2261.317073	1.210477	0.324125	13780.153320
2261.317939	1.181858	0.324125	14803.642578
2261.319039	1.148829	0.324125	16067.354492
2261.320015	0.733645	0.324125	16783.392578
2261.320892	0.098892	0.324125	16870.121094
2261.321910	0.090081	0.324125	16961.822266
2261.322951	0.089989	0.324125	17055.500000
2261.323839	0.089952	0.324125	17135.376953
2261.324720	0.089985	0.324125	17214.654297
2261.325800	0.090051	0.324125	17311.910156
2261.326759	0.089967	0.324125	17398.189453
2261.327619	0.090055	0.324125	17475.636719
2261.328653	0.090081	0.324125	17568.779297
2261.329683	0.090059	0.324125	17661.539062
2262.380230	1.064784	0.301184	462.116211
2262.381099	1.523203	0.301184	1785.779785
2262.382178	1.505522	0.301184	3410.238281
2262.383179	1.461877	0.301184	4873.577637
2262.384074	1.424575	0.301184	6148.572266
2262.385072	1.384578	0.301184	7530.380859
2262.386127	1.344163	0.301184	8948.472656
2262.387036	1.310566	0.301184	10139.777344
2262.387902	1.278622	0.301184	11247.063477
2262.389005	1.242883	0.301184	12617.963867
2262.389975	1.210931	0.301184	13792.567383
2262.390842	1.182773	0.301184	14818.032227
2262.391863	1.151034	0.301184	15993.238281
2262.392913	0.734095	0.301184	16764.039062
2262.393793	0.098914	0.301184	16851.082031
2262.394704	0.090018	0.301184	16933.087891
2262.395769	0.090044	0.301184	17028.984375
2262.396718	0.090066	0.301184	17114.457031
2262.397575	0.089956	0.301184	17191.548828
2262.398598	0.090066	0.301184	17283.685547
2262.399647	0.089967	0.301184	17378.060547
2262.400520	0.089978	0.301184	17456.611328
2262.401464	0.090114	0.301184	17541.677734
2262.402514	0.090026	0.301184	17636.205078
2263.341869	1.145314	0.324713	598.999084
2263.342900	1.529103	0.324713	2175.504150
2263.343780	1.503036	0.324713	3498.175781
2263.344737	1.461724	0.324713	4897.045410
2263.345799	1.416929	0.324713	6401.823730
2263.346732	1.379561	0.324713	7688.953613
2263.347603	1.345415	0.324713	8860.810547
2263.348671	1.307069	0.324713	10256.759766
2263.349679	1.271748	0.324713	11538.681641
2263.350576	1.241656	0.324713	12652.447266
2263.351564	1.209273	0.324713	13847.208984
2263.352617	1.175402	0.324713	15084.907227
2263.353531	1.146819	0.324713	16133.099609
2263.354469	0.721622	0.324713	16809.980469
2263.355334	0.098654	0.324713	16895.316406
2263.356352	0.089875	0.324713	16986.810547
2263.357227	0.089982	0.324713	17065.544922
2263.358103	0.089956	0.324713	17144.345703
2263.359104	0.090044	0.324713	17234.480469
2263.360026	0.089930	0.324713	17317.396484
2263.360929	0.090004	0.324713	17398.669922
2263.361810	0.089989	0.324713	17477.951172
2263.362843	0.089974	0.324713	17570.894531
2263.363736	0.089912	0.324713	17651.185547
2264.415304	1.160332	0.291427	656.747986
2264.416321	1.529326	0.291427	2212.072510
2264.417205	1.502095	0.291427	3539.924316
2264.418221	1.458658	0.291427	5021.921387
2264.419278	1.414753	0.291427	6517.315918
2264.420170	1.378099	0.291427	7746.580566
2264.421036	1.343031	0.291427	8909.645508
2264.422162	1.304088	0.291427	10378.048828
2264.423121	1.270580	0.291427	11596.535156
2264.423997	1.241049	0.291427	12683.693359
2264.425011	1.207218	0.291427	13907.812500
2264.426056	1.174193	0.291427	15134.843750
2264.426949	1.146533	0.291427	16158.698242
2264.427872	0.694779	0.291427	16799.978516
2264.428956	0.092446	0.291427	16900.189453
2264.429892	0.089967	0.291427	16984.398437
2264.430762	0.090055	0.291427	17062.746094
2264.431817	0.090099	0.291427	17157.800781
2264.432832	0.089905	0.291427	17249.054687
2264.433726	0.090007	0.291427	17329.521484
2264.434677	0.090103	0.291427	17415.208984
2264.435714	0.089974	0.291427	17508.511719
2264.436636	0.089945	0.291427	17591.441406
2264.437497	0.089967	0.291427	17668.902344
2265.376721	1.081494	0.321849	479.101898
2265.377581	1.523035	0.321849	1788.911743
2265.378688	1.504413	0.321849	3454.296631
2265.379658	1.462654	0.321849	4873.070801
2265.380521	1.426033	0.321849	6103.736816
2265.381579	1.383523	0.321849	7567.503906
2265.382630	1.343430	0.321849	8979.449219
2265.383516	1.310727	0.321849	10140.753906
2265.384461	1.277681	0.321849	11348.162109
2265.385530	1.241664	0.321849	12675.500977
2265.386474	1.210060	0.321849	13817.796875
2265.387334	1.182023	0.321849	14834.335937
2265.388380	1.149536	0.321849	16036.750977
2265.389411	0.705048	0.321849	16763.654297
2265.390302	0.096962	0.321849	16850.046875
2265.391272	0.089952	0.321849	16937.300781
2265.392337	0.089993	0.321849	17033.142578
2265.393261	0.089974	0.321849	17116.279297
2265.394125	0.090022	0.321849	17194.058594
2265.395199	0.090132	0.321849	17290.859375
2265.396192	0.089916	0.321849	17380.146484
2265.397078	0.089963	0.321849	17459.853516
2265.398047	0.090084	0.321849	17547.144531
2265.399086	0.089956	0.321849	17640.609375
2266.449628	1.074591	0.294207	478.193024
2266.450509	1.524426	0.294207	1821.212646
2266.451373	1.513271	0.294207	3128.679199
2266.452415	1.468455	0.294207	4658.808594
2266.453327	1.429698	0.294207	5962.693359
2266.454212	1.393630	0.294207	7196.056152
2266.455104	1.357405	0.294207	8406.861328
2266.456164	1.319290	0.294207	9805.308594
2266.457066	1.287187	0.294207	10966.351562
2266.457934	1.256323	0.294207	12056.839844
2266.459054	1.221068	0.294207	13424.436523
2266.459957	1.190958	0.294207	14499.872070
2266.460835	1.163280	0.294207	15521.232422
2266.461949	1.019498	0.294207	16656.953125
2266.462932	0.148162	0.294207	16802.595703
2266.463808	0.089897	0.294207	16881.345703
2266.464714	0.089960	0.294207	16962.849609
2266.465787	0.089952	0.294207	17059.369141
2266.466666	0.090026	0.294207	17138.501953
2266.467523	0.090007	0.294207	17215.638672
2266.468528	0.090066	0.294207	17306.154297
2266.469497	0.089963	0.294207	17393.328125
2266.470383	0.089978	0.294207	17473.048828
2266.471366	0.090117	0.294207	17561.634766
2267.411807	1.193225	0.313796	692.070496
2267.412768	1.529689	0.313796	2162.101318
2267.413642	1.503904	0.313796	3476.513184
2267.414507	1.464038	0.313796	4742.906250
2267.415618	1.420071	0.313796	6320.604980
2267.416529	1.382930	0.313796	7580.454102
2267.417398	1.349425	0.313796	8753.104492
2267.418459	1.310490	0.313796	10143.534180
2267.419438	1.276428	0.313796	11393.157227
2267.420312	1.246820	0.313796	12482.877930
2267.421375	1.211257	0.313796	13770.444336
2267.422423	1.177873	0.313796	15004.855469
2267.423321	1.149745	0.313796	16037.326172
2267.424264	0.787533	0.313796	16779.970703
2267.425331	0.095771	0.313796	16882.158203
2267.426286	0.089890	0.313796	16968.003906
2267.427147	0.090015	0.313796	17045.505859
2267.428194	0.090106	0.313796	17139.847656
2267.429216	0.090000	0.313796	17231.828125
2267.430099	0.090055	0.313796	17311.345703
2267.431077	0.089978	0.313796	17399.343750
2267.432121	0.090029	0.313796	17493.333984
2267.433045	0.089960	0.313796	17576.457031
2267.433901	0.090051	0.313796	17653.541016
2268.483768	1.057247	0.290178	445.101166
2268.484856	1.527360	0.290178	2106.868408
2268.485861	1.500059	0.290178	3614.427246
2268.486741	1.461394	0.290178	4900.454102
2268.487732	1.420159	0.290178	6307.831543
2268.488788	1.377927	0.290178	7762.922852
2268.489697	1.342712	0.290178	8983.448242
2268.490569	1.309830	0.290178	10125.620117
2268.491661	1.272642	0.290178	11515.344727
2268.492649	1.240089	0.290178	12740.552734
2268.493516	1.210726	0.290178	13790.251953
2268.494606	1.175746	0.290178	15071.814453
2268.495657	1.143655	0.290178	16273.795898
2268.496563	0.619753	0.290178	16835.292969
2268.497503	0.094380	0.290178	16924.009766
2268.498570	0.090029	0.290178	17020.070312
2268.499509	0.090004	0.290178	17104.583984
2268.500372	0.089960	0.290178	17182.218750
2268.501418	0.090114	0.290178	17276.476562
2268.502427	0.089930	0.290178	17367.216797
2268.503322	0.089960	0.290178	17447.730469
2268.504278	0.090066	0.290178	17533.833984
2268.505334	0.090015	0.290178	17628.888672
2268.506249	0.089978	0.290178	17711.218750
2269.445834	1.079517	0.318522	473.907806
2269.446720	1.524734	0.318522	1824.822021
2269.447723	1.507742	0.318522	3337.086914
2269.448791	1.462229	0.318522	4898.747070
2269.449686	1.423759	0.318522	6173.010742
2269.450573	1.386566	0.318522	7402.895020
2269.451674	1.345254	0.318522	8884.019531
2269.452636	1.310588	0.318522	10144.805664
2269.453513	1.279658	0.318522	11267.066406
2269.454553	1.244524	0.318522	12561.371094
2269.455584	1.210466	0.318522	13809.361328
2269.456481	1.181063	0.318522	14868.775391
2269.457428	1.152056	0.318522	15959.772461
2269.458477	0.754061	0.318522	16750.783203
2269.459414	0.098167	0.318522	16842.765625
2269.460274	0.089890	0.318522	16920.070312
2269.461335	0.090007	0.318522	17015.568359
2269.462343	0.089941	0.318522	17106.228516
2269.463217	0.090040	0.318522	17184.923828
2269.464188	0.090007	0.318522	17272.320312
2269.465240	0.089993	0.318522	17366.992187
2269.466157	0.090033	0.318522	17449.552734
2269.467026	0.089993	0.318522	17527.755859
2269.468075	0.090055	0.318522	17622.222656
2270.519004	1.098439	0.284644	493.199005
2270.519893	1.525756	0.284644	1849.595581
2270.520882	1.507756	0.284644	3340.766602
2270.521942	1.461951	0.284644	4890.434570
2270.522853	1.423506	0.284644	6187.248535
2270.523720	1.386698	0.284644	7389.515625
2270.524822	1.345862	0.284644	8872.655273
2270.525795	1.310544	0.284644	10147.815430
2270.526664	1.279893	0.284644	11260.041992
2270.527731	1.244099	0.284644	12587.496094
2270.528769	1.209496	0.284644	13842.953125
2270.529667	1.180225	0.284644	14902.794922
2270.530595	1.151437	0.284644	15971.328125
2270.531664	0.725123	0.284644	16746.484375
2270.532595	0.096617	0.284644	16836.435547
2270.533519	0.089974	0.284644	16919.572266
2270.534389	0.090037	0.284644	16997.904297
2270.535424	0.090018	0.284644	17091.074219
2270.536298	0.089978	0.284644	17169.714844
2270.537176	0.090059	0.284644	17248.787109
2270.538092	0.090037	0.284644	17331.259766
2270.539095	0.089974	0.284644	17421.503906
2270.539998	0.090022	0.284644	17502.792969
2270.540892	0.089993	0.284644	17583.246094
2271.480603	1.102178	0.318510	576.438965
2271.481654	1.528187	0.318510	2182.563965
2271.482589	1.500421	0.318510	3585.457764
2271.483451	1.461757	0.318510	4845.492187
2271.484507	1.417991	0.318510	6342.890625
2271.485523	1.377173	0.318510	7742.098145
2271.486417	1.343401	0.318510	8943.098633
2271.487402	1.307677	0.318510	10231.160156
2271.488459	1.271005	0.318510	11574.612305
2271.489361	1.239668	0.318510	12692.792969
2271.490294	1.209210	0.318510	13820.986328
2271.491165	1.180115	0.318510	14848.866211
2271.492213	1.148632	0.318510	16052.631836
2271.493115	0.819496	0.318510	16791.816406
2271.493994	0.106641	0.318510	16885.552734
2271.494995	0.089996	0.318510	16975.638672
2271.495938	0.090059	0.318510	17060.564453
2271.496861	0.090073	0.318510	17143.701172
2271.497727	0.090077	0.318510	17221.707031
2271.498754	0.089956	0.318510	17314.091797
2271.499634	0.089971	0.318510	17393.265625
2271.500499	0.090066	0.318510	17471.171875
2271.501535	0.090099	0.318510	17564.513672
2271.502485	0.090026	0.318510	17650.037109
2272.554055	1.167828	0.282029	659.823059
2272.555116	1.528854	0.282029	2281.937012
2272.556016	1.499520	0.282029	3631.505127
2272.556887	1.459999	0.282029	4903.164062
2272.557985	1.415717	0.282029	6457.621094
2272.558946	1.377272	0.282029	7781.179199
2272.559812	1.344009	0.282029	8945.090820
2272.560857	1.306388	0.282029	10310.266602
2272.561900	1.270265	0.282029	11635.153320
2272.562783	1.240217	0.282029	12730.265625
2272.563709	1.209075	0.282029	13849.869141
2272.564788	1.174768	0.282029	15117.444336
2272.565719	1.145830	0.282029	16184.211914
2272.566596	0.744258	0.282029	16836.925781
2272.567624	0.094523	0.282029	16934.095703
2272.568652	0.090044	0.282029	17026.660156
2272.569539	0.090055	0.282029	17106.539062
2272.570492	0.090077	0.282029	17192.382812
2272.571555	0.090106	0.282029	17288.166016
2272.572493	0.090040	0.282029	17372.623047
2272.573356	0.090051	0.282029	17450.337891
2272.574426	0.090033	0.282029	17546.673828
2272.575422	0.090103	0.282029	17636.416016
2272.576313	0.089993	0.282029	17716.599609
2273.516229	1.060261	0.307150	455.912292
2273.517238	1.523306	0.307150	1992.927734
2273.518284	1.501520	0.307150	3563.517578
2273.519190	1.461694	0.307150	4887.812500
2273.520056	1.424059	0.307150	6121.047363
2273.521143	1.381750	0.307150	7623.010254
2273.522133	1.343298	0.307150	8952.875977
2273.523015	1.311149	0.307150	10109.308594
2273.524027	1.275883	0.307150	11400.501953
2273.525089	1.240514	0.307150	12717.927734
2273.525976	1.210250	0.307150	13791.419922
2273.526900	1.180378	0.307150	14882.089844
2273.527985	1.146954	0.307150	16126.535156
2273.528942	0.702806	0.307150	16799.121094
2273.529809	0.097588	0.307150	16883.730469
2273.530841	0.089974	0.307150	16976.583984
2273.531865	0.089989	0.307150	17068.732422
2273.532758	0.089938	0.307150	17149.046875
2273.533694	0.090015	0.307150	17233.300781
2273.534748	0.090081	0.307150	17328.246094
2273.535684	0.090055	0.307150	17412.537109
2273.536546	0.090103	0.307150	17490.205078
2273.537606	0.090073	0.307150	17585.683594
2273.538600	0.090062	0.307150	17675.205078
2274.587624	1.082860	0.284793	504.612823
2274.588657	1.529509	0.284793	2084.595947
2274.589548	1.505054	0.284793	3425.598633
2274.590428	1.466818	0.284793	4716.398437
2274.591432	1.425648	0.284793	6147.749023
2274.592347	1.387222	0.284793	7417.056641
2274.593269	1.352065	0.284793	8663.661133
2274.594134	1.318846	0.284793	9804.462891
2274.595161	1.283247	0.284793	11122.357422
2274.596067	1.252804	0.284793	12257.397461
2274.596936	1.223097	0.284793	13320.268555
2274.598021	1.188278	0.284793	14609.549805
2274.598940	1.159270	0.284793	15674.918945
2274.599827	1.115881	0.284793	16664.705078
2274.600790	0.239777	0.284793	16895.609375
2274.601808	0.089850	0.284793	16987.076172
2274.602697	0.090099	0.284793	17067.173828
2274.603558	0.090062	0.284793	17144.716797
2274.604620	0.090103	0.284793	17240.406250
2274.605556	0.089989	0.284793	17324.636719
2274.606429	0.089993	0.284793	17403.201172
2274.607385	0.090033	0.284793	17489.273437
2274.608422	0.090011	0.284793	17582.615234
2274.609299	0.090011	0.284793	17661.554687
2275.550557	1.186959	0.308600	687.249329
2275.551603	1.528594	0.308600	2286.158447
2275.552490	1.499930	0.308600	3616.596680
2275.553417	1.458798	0.308600	4968.901855
2275.554510	1.413973	0.308600	6514.375000
2275.555444	1.376360	0.308600	7799.895020
2275.556316	1.342599	0.308600	8970.640625
2275.557356	1.305033	0.308600	10327.875000
2275.558389	1.269291	0.308600	11639.052734
2275.559286	1.239199	0.308600	12750.614258
2275.560257	1.207317	0.308600	13922.918945
2275.561326	1.172897	0.308600	15176.746094
2275.562257	1.144211	0.308600	16242.006836
2275.563125	0.678545	0.308600	16830.984375
2275.564216	0.091992	0.308600	16931.347656
2275.565216	0.090055	0.308600	17021.402344
2275.566107	0.090011	0.308600	17101.601562
2275.567092	0.090150	0.308600	17190.400391
2275.568145	0.090066	0.308600	17285.240234
2275.569048	0.090018	0.308600	17366.527344
2275.569912	0.090128	0.308600	17444.398437
2275.570998	0.090209	0.308600	17542.365234
2275.571963	0.090015	0.308600	17629.228516
2275.572821	0.090088	0.308600	17706.523437
2276.620840	1.148394	0.280232	593.719482
2276.621816	1.529344	0.280232	2086.359619
2276.622690	1.505750	0.280232	3402.384766
2276.623703	1.462159	0.280232	4883.552246
2276.624755	1.418569	0.280232	6375.887207
2276.625643	1.381945	0.280232	7603.053711
2276.626524	1.346664	0.280232	8789.464844
2276.627637	1.307505	0.280232	10244.717773
2276.628598	1.274125	0.280232	11469.151367
2276.629459	1.244777	0.280232	12540.904297
2276.630473	1.210759	0.280232	13768.614258
2276.631507	1.177753	0.280232	14986.410156
2276.632403	1.149976	0.280232	16016.788086
2276.633352	0.784120	0.280232	16760.917969
2276.634409	0.096284	0.280232	16862.689453
2276.635353	0.090048	0.280232	16947.695312
2276.636223	0.090007	0.280232	17026.001953
2276.637271	0.090029	0.280232	17120.353516
2276.638288	0.090048	0.280232	17211.931641
2276.639184	0.089982	0.280232	17292.554687
2276.640147	0.090088	0.280232	17379.308594
2276.641204	0.090081	0.280232	17474.523437
2276.642125	0.089974	0.280232	17557.390625
2276.642987	0.090037	0.280232	17635.001953
2277.586108	1.056467	0.303266	446.885651
2277.587170	1.526744	0.303266	2068.288086
2277.588187	1.500516	0.303266	3594.313232
2277.589073	1.461661	0.303266	4889.345215
2277.590063	1.421122	0.303266	6296.255859
2277.591122	1.378088	0.303266	7755.651367
2277.592042	1.342606	0.303266	8990.848633
2277.592905	1.310171	0.303266	10121.526367
2277.593994	1.273154	0.303266	11507.991211
2277.594989	1.239697	0.303266	12741.490234
2277.595869	1.210019	0.303266	13806.307617
2277.596859	1.178328	0.303266	14972.851562
2277.597938	1.145812	0.303266	16209.182617
2277.598827	0.701799	0.303266	16833.082031
2277.599696	0.097533	0.303266	16917.837891
2277.600794	0.090037	0.303266	17016.697266
2277.601760	0.089934	0.303266	17103.574219
2277.602627	0.090084	0.303266	17181.677734
2277.603684	0.090150	0.303266	17276.966797
2277.604720	0.090070	0.303266	17370.279297
2277.605605	0.089985	0.303266	17449.916016
2277.606478	0.090018	0.303266	17528.501953
2277.607400	0.090077	0.303266	17611.552734
2277.608397	0.089927	0.303266	17701.208984
2278.654285	1.166407	0.277264	668.351501
2278.655217	1.529033	0.277264	2093.410400
2278.656155	1.503461	0.277264	3503.656738
2278.657018	1.464489	0.277264	4767.510254
2278.658066	1.421796	0.277264	6257.551758
2278.658958	1.385175	0.277264	7493.127441
2278.659829	1.351326	0.277264	8670.131836
2278.660867	1.313430	0.277264	10033.472656
2278.661811	1.280120	0.277264	11241.905273
2278.662698	1.250292	0.277264	12350.914062
2278.663652	1.218593	0.277264	13513.451172
2278.664698	1.184535	0.277264	14752.474609
2278.665596	1.156384	0.277264	15790.908203
2278.666464	1.039058	0.277264	16692.810547
2278.667538	0.137827	0.277264	16840.835937
2278.668469	0.089908	0.277264	16924.541016
2278.669327	0.090007	0.277264	17001.767578
2278.670373	0.090029	0.277264	17095.937500
2278.671390	0.089919	0.277264	17187.384766
2278.672266	0.090011	0.277264	17266.234375
2278.673242	0.090037	0.277264	17354.109375
2278.674291	0.090040	0.277264	17448.562500
2278.675208	0.089963	0.277264	17531.058594
2278.676067	0.089985	0.277264	17608.355469
