time (s)	coil I (A)	last det (V)	int current (uC)
7721.876019	0.496798	0.239086	254.360626
7721.877054	0.282034	0.239086	546.265503
7721.877952	0.287988	0.239086	804.878967
7721.878920	0.284022	0.239086	1079.812500
7721.879974	0.270853	0.239086	1365.291870
7721.880912	0.253206	0.239086	1602.798706
7721.881781	0.245292	0.239086	1815.957275
7721.882873	0.218866	0.239086	2054.958984
7721.883875	0.090630	0.239086	2145.770020
7721.884770	0.091439	0.239086	2227.608154
7721.885745	0.091011	0.239086	2316.343750
7721.886796	0.091011	0.239086	2411.996094
7721.887700	0.091044	0.239086	2494.299561
7721.888558	0.090875	0.239086	2572.270508
7721.889651	0.090663	0.239086	2671.364990
7721.890639	0.090487	0.239086	2760.766113
7721.891519	0.090659	0.239086	2840.546143
7721.892525	0.090406	0.239086	2931.495117
7722.907102	1.183550	0.209884	538.515137
7722.907977	2.250319	0.209884	2507.543945
7722.908976	2.373472	0.209884	4878.642090
7722.910040	1.692726	0.209884	6679.702148
7722.910947	0.850825	0.209884	7451.400391
7722.911815	0.772035	0.209884	8121.526855
7722.912924	0.741061	0.209884	8943.363281
7722.913908	0.381376	0.209884	9318.636719
7722.914773	0.091022	0.209884	9397.370117
7722.915827	0.091296	0.209884	9493.596680
7722.916866	0.091707	0.209884	9588.879883
7722.917755	0.092139	0.209884	9670.791016
7722.918684	0.091117	0.209884	9755.438477
7722.919762	0.090780	0.209884	9853.299805
7722.920711	0.091022	0.209884	9939.679687
7722.921576	0.090923	0.209884	10018.328125
7722.922633	0.090626	0.209884	10114.120117
7722.923637	0.090509	0.209884	10204.991211
7723.910597	0.628521	0.243666	270.892365
7723.911470	0.278456	0.243666	513.984253
7723.912516	0.288365	0.243666	815.614563
7723.913542	0.285143	0.243666	1108.171143
7723.914437	0.274944	0.243666	1354.245850
7723.915408	0.257402	0.243666	1604.183472
7723.916463	0.245750	0.243666	1863.449219
7723.917394	0.257534	0.243666	2103.213623
7723.918259	0.090505	0.243666	2181.500732
7723.919353	0.091263	0.243666	2281.343018
7723.920347	0.091487	0.243666	2372.281006
7723.921240	0.091403	0.243666	2453.903564
7723.922227	0.090861	0.243666	2543.583008
7723.923263	0.090762	0.243666	2637.612061
7723.924165	0.090846	0.243666	2719.555176
7723.925022	0.090626	0.243666	2797.221924
7723.926122	0.090502	0.243666	2896.773926
7723.927098	0.090381	0.243666	2984.985596
7724.945858	0.619633	0.200833	263.963470
7724.946852	0.279448	0.200833	541.734985
7724.947726	0.287739	0.200833	793.219116
7724.948650	0.285582	0.200833	1057.097168
7724.949536	0.276313	0.200833	1301.910889
7724.950533	0.259633	0.200833	1560.764648
7724.951459	0.246398	0.200833	1788.928955
7724.952337	0.318193	0.200833	2068.302734
7724.953362	0.090359	0.200833	2160.920654
7724.954281	0.091395	0.200833	2244.912842
7724.955202	0.091699	0.200833	2329.367920
7724.956063	0.091509	0.200833	2408.156982
7724.957041	0.091176	0.200833	2497.326660
7724.957966	0.091285	0.200833	2581.765625
7724.958834	0.090747	0.200833	2660.534180
7724.959839	0.090835	0.200833	2751.823242
7724.960747	0.090857	0.200833	2834.321289
7724.961669	0.090608	0.200833	2917.861816
7725.946440	0.498790	0.235899	276.329834
7725.947337	0.281166	0.235899	528.535522
7725.948274	0.288138	0.235899	798.521240
7725.949148	0.285205	0.235899	1047.790527
7725.950216	0.273706	0.235899	1340.108643
7725.951116	0.257435	0.235899	1571.800415
7725.951992	0.246368	0.235899	1787.619141
7725.952989	0.275325	0.235899	2062.117920
7725.953922	0.090784	0.235899	2146.819092
7725.954854	0.091296	0.235899	2231.907227
7725.955721	0.091699	0.235899	2311.410400
7725.956775	0.091194	0.235899	2407.528809
7725.957656	0.091483	0.235899	2488.125488
7725.958518	0.091787	0.235899	2567.246094
7725.959495	0.091033	0.235899	2656.185059
7725.960428	0.091187	0.235899	2741.262207
7725.961340	0.091318	0.235899	2824.544434
7725.962215	0.090872	0.235899	2904.057129
7726.983635	0.620962	0.201425	273.223236
7726.984503	0.278408	0.201425	514.881531
7726.985571	0.288051	0.201425	822.519531
7726.986596	0.284861	0.201425	1114.501953
7726.987475	0.274490	0.201425	1355.778442
7726.988439	0.257201	0.201425	1603.720093
7726.989527	0.245757	0.201425	1871.103516
7726.990438	0.261522	0.201425	2109.350342
7726.991304	0.090721	0.201425	2187.915039
7726.992385	0.091326	0.201425	2286.638184
7726.993381	0.091556	0.201425	2377.828369
7726.994275	0.091582	0.201425	2459.702637
7726.995260	0.091036	0.201425	2549.373535
7726.996322	0.090879	0.201425	2645.886963
7726.997218	0.091139	0.201425	2727.547363
7726.998077	0.091014	0.201425	2805.728760
7726.999183	0.090740	0.201425	2906.086914
7727.000150	0.090780	0.201425	2993.871094
7727.982109	0.551979	0.241954	280.957184
7727.983151	0.282239	0.241954	575.049988
7727.984021	0.288479	0.241954	826.026733
7727.984988	0.284707	0.241954	1101.338379
7727.986049	0.271794	0.241954	1389.712280
7727.986968	0.254626	0.241954	1623.713989
7727.987843	0.245812	0.241954	1838.799316
7727.988934	0.226472	0.241954	2085.880371
7727.989930	0.090934	0.241954	2176.450439
7727.990823	0.091820	0.241954	2258.445801
7727.991803	0.091285	0.241954	2347.905518
7727.992860	0.091443	0.241954	2444.560547
7727.993760	0.091234	0.241954	2526.671143
7727.994622	0.090985	0.241954	2605.100342
7727.995710	0.090897	0.241954	2703.996582
7727.996680	0.091106	0.241954	2792.369385
7727.997562	0.090699	0.241954	2872.366211
7727.998577	0.090721	0.241954	2964.448486
7729.020363	0.607537	0.199286	264.885956
7729.021227	0.278734	0.199286	505.712219
7729.022341	0.288274	0.199286	826.849365
7729.023309	0.285125	0.199286	1102.849854
7729.024177	0.275094	0.199286	1341.631470
7729.025226	0.256355	0.199286	1610.547852
7729.026274	0.245706	0.199286	1868.047363
7729.027168	0.263705	0.199286	2103.799561
7729.028100	0.090670	0.199286	2188.304199
7729.029164	0.091531	0.199286	2285.692871
7729.030099	0.091626	0.199286	2371.363281
7729.030965	0.091776	0.199286	2450.841309
7729.031995	0.091051	0.199286	2544.623779
7729.033013	0.090886	0.199286	2637.145996
7729.033905	0.091077	0.199286	2718.386475
7729.034853	0.090985	0.199286	2804.640381
7729.035915	0.090842	0.199286	2901.114990
7729.036842	0.090842	0.199286	2985.325684
7730.018364	0.513084	0.243896	284.248260
7730.019430	0.283077	0.243896	586.008789
7730.020323	0.288801	0.243896	843.908325
7730.021223	0.284707	0.243896	1100.144653
7730.022320	0.271219	0.243896	1397.672363
7730.023284	0.253154	0.243896	1641.713135
7730.024152	0.245782	0.243896	1855.052246
7730.025210	0.213300	0.243896	2080.723145
7730.026224	0.090839	0.243896	2172.833496
7730.027107	0.091879	0.243896	2253.962402
7730.028052	0.091348	0.243896	2340.285889
7730.029105	0.091069	0.243896	2436.181885
7730.030035	0.091135	0.243896	2520.937744
7730.030891	0.091055	0.243896	2598.880615
7730.031940	0.090835	0.243896	2694.166504
7730.032954	0.090743	0.243896	2786.180420
7730.033829	0.090930	0.243896	2865.744385
7730.034786	0.090557	0.243896	2952.406982
7731.057592	0.645238	0.200398	271.645203
7731.058666	0.282041	0.200398	574.557251
7731.059662	0.289087	0.200398	862.487793
7731.060559	0.285809	0.200398	1118.858765
7731.061565	0.273578	0.200398	1394.078125
7731.062640	0.253751	0.200398	1666.860718
7731.063537	0.245933	0.200398	1887.462280
7731.064429	0.269685	0.200398	2128.021240
7731.065538	0.090787	0.200398	2228.704346
7731.066493	0.091864	0.200398	2316.434570
7731.067363	0.091685	0.200398	2396.200195
7731.068396	0.091157	0.200398	2490.365723
7731.069416	0.091121	0.200398	2583.308838
7731.070315	0.091176	0.200398	2665.275635
7731.071247	0.090831	0.200398	2749.930420
7731.072306	0.090758	0.200398	2846.043213
7731.073251	0.090747	0.200398	2931.799072
7731.074115	0.090857	0.200398	3010.299561
7732.056533	0.631318	0.236097	278.411407
7732.057407	0.278734	0.236097	522.025024
7732.058270	0.287904	0.236097	770.486206
7732.059321	0.286157	0.236097	1071.237427
7732.060228	0.276661	0.236097	1322.169312
7732.061106	0.261566	0.236097	1551.824463
7732.062051	0.247485	0.236097	1785.698120
7732.063025	0.311946	0.236097	2089.533447
7732.063936	0.090575	0.236097	2172.047119
7732.064811	0.091615	0.236097	2252.210205
7732.065906	0.091633	0.236097	2352.548584
7732.066798	0.091377	0.236097	2434.056885
7732.067672	0.091487	0.236097	2514.016357
7732.068575	0.090963	0.236097	2596.156006
7732.069595	0.090831	0.236097	2688.803955
7732.070475	0.091201	0.236097	2769.061035
7732.071337	0.091084	0.236097	2847.575439
7732.072333	0.090597	0.236097	2937.810059
7733.094936	0.652742	0.204559	338.772919
7733.095968	0.282711	0.204559	630.530884
7733.096857	0.288750	0.204559	887.229614
7733.097719	0.285791	0.204559	1133.581421
7733.098796	0.273171	0.204559	1427.786987
7733.099732	0.255637	0.204559	1667.063354
7733.100604	0.246292	0.204559	1881.829590
7733.101587	0.243333	0.204559	2121.025391
7733.102611	0.090538	0.204559	2213.736572
7733.103496	0.091597	0.204559	2294.799561
7733.104352	0.091443	0.204559	2373.074707
7733.105385	0.091143	0.204559	2467.225098
7733.106332	0.091351	0.204559	2553.734863
7733.107210	0.091388	0.204559	2633.973389
7733.108145	0.091047	0.204559	2719.102783
7733.109191	0.090853	0.204559	2814.135254
7733.110084	0.090886	0.204559	2895.296631
7733.110948	0.090637	0.204559	2973.607178
7734.092749	0.589362	0.243336	258.140350
7734.093622	0.278430	0.243336	501.209900
7734.094484	0.287640	0.243336	749.155884
7734.095589	0.285527	0.243336	1064.663574
7734.096503	0.275215	0.243336	1316.209961
7734.097381	0.259768	0.243336	1544.286377
7734.098406	0.246614	0.243336	1797.065430
7734.099414	0.265093	0.243336	2064.278809
7734.100296	0.090732	0.243336	2144.304687
7734.101311	0.091333	0.243336	2237.007812
7734.102363	0.091575	0.243336	2333.344482
7734.103240	0.091813	0.243336	2413.864258
7734.104123	0.091099	0.243336	2494.304443
7734.105225	0.090850	0.243336	2594.420654
7734.106177	0.091062	0.243336	2681.111572
7734.107035	0.091172	0.243336	2759.337158
7734.108056	0.090597	0.243336	2851.836670
7734.109092	0.090886	0.243336	2945.994873
7735.131213	0.485735	0.200853	277.840363
7735.132265	0.283502	0.200853	576.084656
7735.133150	0.288940	0.200853	831.796936
7735.134047	0.284894	0.200853	1087.346680
7735.135138	0.271586	0.200853	1383.646729
7735.136090	0.253425	0.200853	1624.907593
7735.136950	0.246046	0.200853	1836.507324
7735.137992	0.229266	0.200853	2075.402832
7735.139029	0.090776	0.200853	2169.537842
7735.139905	0.091758	0.200853	2249.917725
7735.140855	0.091392	0.200853	2336.739746
7735.141913	0.091179	0.200853	2433.207275
7735.142846	0.091520	0.200853	2518.595215
7735.143716	0.091121	0.200853	2597.870117
7735.144766	0.090831	0.200853	2693.242920
7735.145779	0.090985	0.200853	2785.410889
7735.146672	0.090864	0.200853	2866.552734
7735.147629	0.090710	0.200853	2953.362549
7736.129976	0.643601	0.241720	270.956085
7736.130954	0.279763	0.241720	544.564453
7736.132005	0.288505	0.241720	847.782837
7736.132921	0.285176	0.241720	1109.003906
7736.133788	0.274633	0.241720	1347.110352
7736.134872	0.255655	0.241720	1624.240967
7736.135863	0.246013	0.241720	1868.040039
7736.136753	0.260105	0.241720	2099.533447
7736.137765	0.090604	0.241720	2191.224854
7736.138812	0.091238	0.241720	2286.750732
7736.139692	0.091721	0.241720	2367.465332
7736.140561	0.091318	0.241720	2446.821045
7736.141666	0.091033	0.241720	2547.412109
7736.142631	0.090952	0.241720	2635.180908
7736.143491	0.091176	0.241720	2713.591797
7736.144510	0.090795	0.241720	2806.111572
7736.145555	0.090868	0.241720	2901.068604
7736.146441	0.090853	0.241720	2981.564697
7737.168389	0.578943	0.204088	288.313568
7737.169316	0.280532	0.204088	548.366943
7737.170187	0.288322	0.204088	799.494995
7737.171249	0.285392	0.204088	1102.581055
7737.172267	0.273105	0.204088	1380.602417
7737.173168	0.256564	0.204088	1611.766357
7737.174143	0.246035	0.204088	1851.650635
7737.175214	0.232181	0.204088	2100.316895
7737.176125	0.090806	0.204088	2183.040771
7737.176986	0.091846	0.204088	2262.119873
7737.178081	0.091410	0.204088	2362.213623
7737.179068	0.091479	0.204088	2452.503906
7737.179960	0.091666	0.204088	2534.270264
7737.180943	0.091095	0.204088	2623.816650
7737.181997	0.091047	0.204088	2719.780518
7737.182886	0.091263	0.204088	2800.913818
7737.183747	0.090846	0.204088	2879.132080
7737.184854	0.090560	0.204088	2979.382324
7738.166234	0.603175	0.248935	267.206543
7738.167109	0.279181	0.248935	511.489807
7738.167973	0.288369	0.248935	760.640747
7738.168953	0.286934	0.248935	1041.835693
7738.169861	0.277885	0.248935	1294.154785
7738.170742	0.263177	0.248935	1526.014160
7738.171737	0.247877	0.248935	1772.651978
7738.172670	0.292515	0.248935	2045.568115
7738.173600	0.090348	0.248935	2129.591553
7738.174461	0.091556	0.248935	2208.421631
7738.175501	0.091750	0.248935	2303.842041
7738.176380	0.091498	0.248935	2384.268555
7738.177249	0.091637	0.248935	2463.901123
7738.178231	0.091084	0.248935	2553.345703
7738.179156	0.091373	0.248935	2637.865967
7738.180074	0.090967	0.248935	2721.373535
7738.180955	0.090875	0.248935	2801.434570
7738.181967	0.090857	0.248935	2893.381836
7739.203510	0.643964	0.211778	273.040558
7739.204511	0.280437	0.211778	553.758057
7739.205504	0.288680	0.211778	840.417725
7739.206398	0.285992	0.211778	1096.094971
7739.207262	0.276116	0.211778	1334.658936
7739.208362	0.257054	0.211778	1617.418823
7739.209268	0.246398	0.211778	1840.655151
7739.210148	0.290017	0.211778	2095.870117
7739.211159	0.090535	0.211778	2187.400635
7739.212160	0.091252	0.211778	2278.744385
7739.213030	0.091868	0.211778	2358.669189
7739.214013	0.091355	0.211778	2448.471191
7739.215071	0.091000	0.211778	2544.749023
7739.215973	0.090952	0.211778	2626.787842
7739.216836	0.091036	0.211778	2705.352295
7739.217940	0.090648	0.211778	2805.427979
7739.218900	0.090725	0.211778	2892.524170
7739.219780	0.090923	0.211778	2972.536377
7740.205086	0.542047	0.240117	277.528137
7740.205973	0.280865	0.240117	526.655823
7740.206862	0.288805	0.240117	783.403381
7740.207952	0.285535	0.240117	1094.636230
7740.208908	0.273962	0.240117	1356.544312
7740.209781	0.257366	0.240117	1581.224609
7740.210813	0.246229	0.240117	1835.333252
7740.211853	0.228307	0.240117	2072.772461
7740.212728	0.090630	0.240117	2152.073730
7740.213665	0.091285	0.240117	2237.608154
7740.214724	0.091421	0.240117	2334.422852
7740.215661	0.091414	0.240117	2420.077393
7740.216527	0.091370	0.240117	2499.203613
7740.217580	0.090886	0.240117	2594.906738
7740.218605	0.090714	0.240117	2687.888672
7740.219494	0.090927	0.240117	2768.722412
7740.220451	0.090604	0.240117	2855.430664
7740.221492	0.090491	0.240117	2949.631592
7741.239741	0.644150	0.210352	271.831451
7741.240782	0.281158	0.210352	564.517395
7741.241808	0.288907	0.210352	860.936462
7741.242695	0.285538	0.210352	1114.208984
7741.243675	0.273856	0.210352	1382.588013
7741.244736	0.254063	0.210352	1652.148315
7741.245646	0.246200	0.210352	1876.190308
7741.246514	0.243724	0.210352	2087.743164
7741.247579	0.090659	0.210352	2184.295166
7741.248589	0.091370	0.210352	2276.578613
7741.249473	0.091549	0.210352	2357.508057
7741.250454	0.091183	0.210352	2446.958496
7741.251507	0.091029	0.210352	2542.812012
7741.252418	0.090787	0.210352	2625.519287
7741.253282	0.090787	0.210352	2703.959473
7741.254379	0.090780	0.210352	2803.545166
7741.255353	0.090579	0.210352	2891.768799
7741.256231	0.090626	0.210352	2971.338623
7742.243888	0.484003	0.246417	257.489410
7742.244936	0.282766	0.246417	553.828247
7742.245834	0.288849	0.246417	813.214539
7742.246763	0.285048	0.246417	1078.023804
7742.247832	0.271512	0.246417	1368.270630
7742.248770	0.253766	0.246417	1606.302979
7742.249635	0.245925	0.246417	1819.028320
7742.250694	0.213556	0.246417	2045.184082
7742.251710	0.090857	0.246417	2137.494629
7742.252592	0.091644	0.246417	2218.324951
7742.253554	0.091447	0.246417	2306.296387
7742.254609	0.091355	0.246417	2402.675781
7742.255530	0.091326	0.246417	2486.786621
7742.256389	0.090963	0.246417	2564.923828
7742.257436	0.090813	0.246417	2660.005127
7742.258451	0.090809	0.246417	2752.176514
7742.259343	0.090864	0.246417	2833.227539
7742.260307	0.090619	0.246417	2920.584229
7743.274975	0.577328	0.211621	264.993500
7743.275860	0.279595	0.211621	512.434814
7743.276836	0.288439	0.211621	793.950989
7743.277909	0.285194	0.211621	1099.964233
7743.278827	0.274061	0.211621	1351.552490
7743.279694	0.257388	0.211621	1574.707642
7743.280795	0.246200	0.211621	1845.773804
7743.281792	0.231002	0.211621	2076.083008
7743.282682	0.090670	0.211621	2156.779541
7743.283688	0.091230	0.211621	2248.557373
7743.284721	0.091432	0.211621	2343.006592
7743.285609	0.091564	0.211621	2424.315186
7743.286470	0.090978	0.211621	2502.646973
7743.287559	0.090938	0.211621	2601.677979
7743.288530	0.091062	0.211621	2690.099121
7743.289389	0.090963	0.211621	2768.236328
7743.290455	0.090685	0.211621	2864.906250
7743.291493	0.090831	0.211621	2959.189209
7744.282553	0.644092	0.239098	271.806732
7744.283567	0.280957	0.239098	556.697144
7744.284619	0.289369	0.239098	861.113220
7744.285522	0.285615	0.239098	1119.023804
7744.286390	0.274032	0.239098	1356.883545
7744.287498	0.254227	0.239098	1638.567383
7744.288457	0.246244	0.239098	1874.715210
7744.289324	0.266199	0.239098	2105.509521
7744.290359	0.090553	0.239098	2199.231934
7744.291398	0.091403	0.239098	2294.199219
7744.292282	0.091571	0.239098	2375.147949
7744.293203	0.091293	0.239098	2459.228516
7744.294283	0.091106	0.239098	2557.623047
7744.295222	0.091161	0.239098	2643.223145
7744.296125	0.091143	0.239098	2725.524902
7744.297007	0.090890	0.239098	2805.689697
7744.297938	0.090809	0.239098	2890.233154
7744.298887	0.090612	0.239098	2976.223633
7745.308156	0.537045	0.216499	256.707367
7745.309044	0.280074	0.216499	505.413483
7745.309914	0.288560	0.216499	756.460327
7745.310904	0.286494	0.216499	1040.089478
7745.311846	0.276068	0.216499	1300.145630
7745.312766	0.259812	0.216499	1539.172729
7745.313645	0.247050	0.216499	1756.329346
7745.314687	0.301351	0.216499	2070.337402
7745.315591	0.090494	0.216499	2152.144287
7745.316461	0.091670	0.216499	2231.897217
7745.317400	0.091476	0.216499	2317.792969
7745.318392	0.091278	0.216499	2408.340820
7745.319307	0.091556	0.216499	2492.114990
7745.320171	0.091124	0.216499	2570.846436
7745.321194	0.091146	0.216499	2664.089111
7745.322081	0.091190	0.216499	2744.974854
7745.322941	0.090927	0.216499	2823.171631
7745.323809	0.090959	0.216499	2902.124512
7746.323971	0.646890	0.235444	320.857269
7746.324953	0.281799	0.235444	597.584229
7746.325826	0.288992	0.235444	849.873962
7746.326729	0.286194	0.235444	1108.307007
7746.327843	0.274113	0.235444	1413.668457
7746.328719	0.257179	0.235444	1638.957275
7746.329588	0.246489	0.235444	1853.156494
7746.330622	0.249558	0.235444	2111.199463
7746.331587	0.090337	0.235444	2198.374512
7746.332462	0.091512	0.235444	2278.447998
7746.333348	0.091487	0.235444	2359.505371
7746.334444	0.091179	0.235444	2459.437744
7746.335343	0.091417	0.235444	2541.621826
7746.336206	0.090831	0.235444	2620.009277
7746.337283	0.090806	0.235444	2717.806885
7746.338260	0.090802	0.235444	2806.520508
7746.339138	0.091058	0.235444	2886.469727
7746.340028	0.090714	0.235444	2967.205322
7747.340310	0.551895	0.220640	278.154846
7747.341308	0.281854	0.220640	559.445374
7747.342209	0.288376	0.220640	819.272583
7747.343204	0.284648	0.220640	1102.497803
7747.344259	0.271322	0.220640	1388.742554
7747.345165	0.253898	0.220640	1618.773926
7747.346036	0.245848	0.220640	1832.907837
7747.347151	0.221254	0.220640	2079.605713
7747.348114	0.090641	0.220640	2166.892822
7747.348983	0.091732	0.220640	2246.608154
7747.350052	0.091234	0.220640	2344.137451
7747.351091	0.091337	0.220640	2439.036133
7747.351982	0.091417	0.220640	2520.488770
7747.352911	0.090798	0.220640	2604.840332
7747.353977	0.090857	0.220640	2701.693848
7747.354918	0.091040	0.220640	2787.362549
7747.355779	0.090762	0.220640	2865.508301
7747.356840	0.090601	0.220640	2961.635498
7748.366374	0.650764	0.223210	346.857300
7748.367445	0.283220	0.223210	650.186157
7748.368343	0.288970	0.223210	909.680969
7748.369216	0.284952	0.223210	1158.444336
7748.370308	0.271073	0.223210	1454.456055
7748.371316	0.252177	0.223210	1708.650024
7748.372213	0.246032	0.223210	1929.340332
7748.373214	0.224637	0.223210	2154.202393
7748.374283	0.091007	0.223210	2251.489014
7748.375174	0.091860	0.223210	2333.336670
7748.376056	0.091505	0.223210	2414.044189
7748.377151	0.091176	0.223210	2513.881348
7748.378103	0.091531	0.223210	2601.018555
7748.378971	0.091110	0.223210	2680.101807
7748.380012	0.090897	0.223210	2774.725830
7748.381038	0.090934	0.223210	2868.023926
7748.381932	0.090912	0.223210	2949.299072
7748.382875	0.090601	0.223210	3034.735352
7749.371837	0.643920	0.230969	271.090179
7749.372785	0.279280	0.230969	535.847412
7749.373857	0.288527	0.230969	845.147949
7749.374797	0.285183	0.230969	1113.220093
7749.375669	0.274644	0.230969	1352.709229
7749.376748	0.255483	0.230969	1628.375732
7749.377748	0.245775	0.230969	1874.150879
7749.378644	0.254282	0.230969	2101.987793
7749.379610	0.090509	0.230969	2189.419434
7749.380664	0.091307	0.230969	2285.657471
7749.381576	0.091582	0.230969	2369.180176
7749.382438	0.091355	0.230969	2447.928223
7749.383523	0.091055	0.230969	2546.722656
7749.384511	0.090989	0.230969	2636.619629
7749.385391	0.090886	0.230969	2716.599609
7749.386393	0.090820	0.230969	2807.601562
7749.387442	0.090623	0.230969	2902.664551
7749.388331	0.090828	0.230969	2983.410400
7750.408143	0.589314	0.224858	261.066071
7750.409012	0.279342	0.224858	503.814331
7750.410115	0.288831	0.224858	822.394409
7750.411118	0.285026	0.224858	1108.275146
7750.412003	0.274384	0.224858	1351.104614
7750.413009	0.255670	0.224858	1608.308838
7750.414066	0.245768	0.224858	1868.085449
7750.414943	0.236184	0.224858	2075.218994
7750.415830	0.090465	0.224858	2155.461426
7750.416935	0.091172	0.224858	2256.206299
7750.417894	0.091267	0.224858	2343.731445
7750.418762	0.091271	0.224858	2422.954346
7750.419783	0.091051	0.224858	2515.917480
7750.420815	0.090740	0.224858	2609.560791
7750.421708	0.091135	0.224858	2690.944580
7750.422637	0.090692	0.224858	2775.197510
7750.423699	0.090553	0.224858	2871.364746
7750.424640	0.090597	0.224858	2956.616455
7751.403066	0.485057	0.239863	261.931000
7751.404089	0.283348	0.239863	551.796387
7751.404980	0.289321	0.239863	809.581665
7751.405937	0.285374	0.239863	1082.684082
7751.406986	0.271644	0.239863	1367.638916
7751.407919	0.253792	0.239863	1604.426392
7751.408785	0.246211	0.239863	1817.645020
7751.409869	0.198790	0.239863	2033.133667
7751.410888	0.090732	0.239863	2125.590088
7751.411762	0.091809	0.239863	2205.831299
7751.412756	0.091271	0.239863	2296.554443
7751.413805	0.091128	0.239863	2392.147705
7751.414710	0.090970	0.239863	2474.476074
7751.415570	0.090798	0.239863	2552.562744
7751.416636	0.090791	0.239863	2649.345947
7751.417627	0.090769	0.239863	2739.298096
7751.418517	0.090901	0.239863	2820.199951
7751.419499	0.090483	0.239863	2909.054687
7752.448446	0.620497	0.223810	264.952148
7752.449317	0.278969	0.223810	507.933716
7752.450315	0.288658	0.223810	796.014832
7752.451249	0.286388	0.223810	1063.501221
7752.452175	0.275951	0.223810	1319.031738
7752.453044	0.259633	0.223810	1544.652466
7752.454093	0.246749	0.223810	1803.492432
7752.454984	0.269945	0.223810	2044.013550
7752.455859	0.090300	0.223810	2123.026367
7752.456851	0.091282	0.223810	2213.577881
7752.457787	0.091633	0.223810	2299.346680
7752.458684	0.091556	0.223810	2381.472656
7752.459567	0.091370	0.223810	2462.152100
7752.460584	0.091373	0.223810	2555.078613
7752.461488	0.090897	0.223810	2637.249756
7752.462356	0.090934	0.223810	2716.180420
7752.463282	0.090667	0.223810	2800.137695
7752.464266	0.090688	0.223810	2889.375244
7753.436703	0.634680	0.243743	332.572388
7753.437665	0.282096	0.243743	603.948669
7753.438586	0.288984	0.243743	870.103271
7753.439457	0.286110	0.243743	1119.304687
7753.440509	0.274069	0.243743	1407.624878
7753.441392	0.256956	0.243743	1634.516602
7753.442260	0.246691	0.243743	1848.644043
7753.443198	0.232866	0.243743	2067.072510
7753.444192	0.090531	0.243743	2157.060303
7753.445110	0.091403	0.243743	2240.967773
7753.445988	0.091487	0.243743	2321.293213
7753.447030	0.091370	0.243743	2416.500488
7753.447939	0.091198	0.243743	2499.398926
7753.448806	0.091271	0.243743	2578.530762
7753.449663	0.090872	0.243743	2656.407715
7753.450725	0.090699	0.243743	2752.730469
7753.451600	0.090824	0.243743	2832.201416
7753.452467	0.091055	0.243743	2911.145752
7754.489876	0.554275	0.211536	281.017395
7754.490820	0.281624	0.211536	546.869995
7754.491685	0.288875	0.211536	796.746460
7754.492740	0.285399	0.211536	1097.842529
7754.493780	0.272567	0.211536	1381.312378
7754.494664	0.255696	0.211536	1607.347412
7754.495623	0.246332	0.211536	1843.579590
7754.496675	0.232310	0.211536	2087.969238
7754.497599	0.090502	0.211536	2171.592773
7754.498456	0.091450	0.211536	2249.965576
7754.499526	0.091377	0.211536	2347.739014
7754.500541	0.091344	0.211536	2440.453125
7754.501411	0.091311	0.211536	2519.893799
7754.502380	0.090974	0.211536	2608.047607
7754.503433	0.090663	0.211536	2703.515625
7754.504348	0.090978	0.211536	2786.760254
7754.505214	0.090688	0.211536	2865.296387
7754.506283	0.090557	0.211536	2962.101318
7755.469837	0.565422	0.252786	281.580322
7755.470771	0.281514	0.252786	544.514038
7755.471637	0.289028	0.252786	794.812561
7755.472676	0.285857	0.252786	1091.817871
7755.473704	0.273413	0.252786	1372.886475
7755.474597	0.256586	0.252786	1602.017456
7755.475560	0.246522	0.252786	1839.418335
7755.476625	0.225659	0.252786	2079.745361
7755.477549	0.090553	0.252786	2163.416260
7755.478412	0.091329	0.252786	2242.233398
7755.479493	0.091256	0.252786	2340.881348
7755.480488	0.091219	0.252786	2431.644775
7755.481382	0.091315	0.252786	2513.280029
7755.482359	0.090769	0.252786	2601.961426
7755.483409	0.090721	0.252786	2697.218994
7755.484306	0.090747	0.252786	2778.619141
7755.485163	0.090736	0.252786	2856.379883
7755.486257	0.090516	0.252786	2955.404785
7756.528062	0.630439	0.213353	268.567200
7756.529074	0.280895	0.213353	552.832764
7756.530152	0.288944	0.213353	864.314453
7756.531025	0.285436	0.213353	1113.499878
7756.531939	0.273864	0.213353	1363.811157
7756.533033	0.253927	0.213353	1641.607300
7756.533977	0.246156	0.213353	1873.978516
7756.534855	0.249862	0.213353	2093.357422
7756.535900	0.090615	0.213353	2188.050293
7756.536917	0.091505	0.213353	2281.111084
7756.537809	0.091648	0.213353	2362.861084
7756.538749	0.091300	0.213353	2448.683105
7756.539820	0.090934	0.213353	2546.073242
7756.540755	0.091150	0.213353	2631.298340
7756.541614	0.090934	0.213353	2709.410400
7756.542674	0.090659	0.213353	2805.509033
7756.543678	0.090645	0.213353	2896.516113
7756.544568	0.090886	0.213353	2977.404785
7757.506058	0.579155	0.251682	291.894257
7757.507049	0.281993	0.251682	571.349731
7757.507944	0.288743	0.251682	829.774414
7757.508952	0.284919	0.251682	1116.973145
7757.510000	0.271989	0.251682	1402.017090
7757.510892	0.254458	0.251682	1628.993652
7757.511781	0.246010	0.251682	1847.696167
7757.512870	0.200845	0.251682	2066.416016
7757.513815	0.090630	0.251682	2152.061279
7757.514674	0.091388	0.251682	2230.563477
7757.515710	0.091263	0.251682	2325.112305
7757.516757	0.091011	0.251682	2420.400635
7757.517633	0.091106	0.251682	2500.209473
7757.518551	0.090967	0.251682	2583.717041
7757.519641	0.090791	0.251682	2682.679199
7757.520563	0.090729	0.251682	2766.331055
7757.521426	0.090619	0.251682	2844.535156
7757.522456	0.090535	0.251682	2937.785889
7758.566879	0.549060	0.203955	252.018555
7758.567754	0.279357	0.203955	496.455658
7758.568757	0.288442	0.203955	785.763367
7758.569820	0.284996	0.203955	1088.714478
7758.570721	0.273783	0.203955	1335.392944
7758.571585	0.256853	0.203955	1557.313965
7758.572714	0.246101	0.203955	1835.162109
7758.573680	0.251235	0.203955	2077.855469
7758.574544	0.090831	0.203955	2156.333740
7758.575583	0.091421	0.203955	2251.320068
7758.576628	0.091377	0.203955	2346.809082
7758.577517	0.091450	0.203955	2428.108398
7758.578433	0.091450	0.203955	2511.876709
7758.579305	0.091165	0.203955	2591.372314
7758.580256	0.090732	0.203955	2677.658936
7758.581203	0.090721	0.203955	2763.572021
7758.582089	0.091000	0.203955	2844.197754
7758.583067	0.090667	0.203955	2932.869629
7759.542805	0.648457	0.248532	335.252289
7759.543765	0.281646	0.248532	605.631958
7759.544692	0.288831	0.248532	873.377869
7759.545562	0.286077	0.248532	1122.264526
7759.546594	0.273765	0.248532	1404.789673
7759.547495	0.257106	0.248532	1636.441895
7759.548370	0.246511	0.248532	1852.139160
7759.549334	0.248386	0.248532	2091.583496
7759.550305	0.090674	0.248532	2179.627686
7759.551225	0.091388	0.248532	2263.704590
7759.552084	0.091641	0.248532	2342.423828
7759.553118	0.091315	0.248532	2436.843262
7759.554020	0.091187	0.248532	2519.093506
7759.554891	0.091128	0.248532	2598.465820
7759.555769	0.090868	0.248532	2678.247803
7759.556821	0.090791	0.248532	2773.760010
7759.557715	0.090956	0.248532	2855.074463
7759.558591	0.090835	0.248532	2934.645996
7760.602655	0.552297	0.207512	281.119354
7760.603590	0.281854	0.207512	544.653076
7760.604454	0.289065	0.207512	794.405151
7760.605514	0.285619	0.207512	1097.161133
7760.606542	0.272769	0.207512	1377.567139
7760.607427	0.255667	0.207512	1603.832031
7760.608415	0.246398	0.207512	1847.272949
7760.609476	0.224008	0.207512	2084.945068
7760.610391	0.090458	0.207512	2167.713867
7760.611246	0.091483	0.207512	2245.931885
7760.612304	0.091315	0.207512	2342.542725
7760.613307	0.091135	0.207512	2433.951416
7760.614197	0.091414	0.207512	2515.309570
7760.615173	0.091121	0.207512	2604.243164
7760.616225	0.091003	0.207512	2699.978760
7760.617133	0.091139	0.207512	2782.732910
7760.617993	0.090754	0.207512	2860.781738
7760.619079	0.090630	0.207512	2959.205811
7761.579995	0.575936	0.248528	256.867584
7761.580869	0.279404	0.248528	501.066956
7761.581898	0.288629	0.248528	798.066345
7761.582948	0.285234	0.248528	1097.562500
7761.583819	0.274215	0.248528	1336.403809
7761.584724	0.257120	0.248528	1569.097656
7761.585825	0.246233	0.248528	1840.200073
7761.586794	0.228483	0.248528	2061.599854
7761.587664	0.090740	0.248528	2140.543457
7761.588687	0.091403	0.248528	2234.048340
7761.589718	0.091428	0.248528	2328.310791
7761.590612	0.091501	0.248528	2410.113037
7761.591556	0.091340	0.248528	2496.338379
7761.592611	0.091058	0.248528	2592.405029
7761.593552	0.090974	0.248528	2678.011719
7761.594413	0.090978	0.248528	2756.343506
7761.595483	0.090670	0.248528	2853.360596
7761.596497	0.090707	0.248528	2945.337402
7762.639821	0.589929	0.204116	260.158783
7762.640699	0.279265	0.204116	505.353577
7762.641697	0.288479	0.204116	793.255615
7762.642766	0.285077	0.204116	1098.002808
7762.643666	0.273853	0.204116	1344.470093
7762.644538	0.257054	0.204116	1568.621582
7762.645653	0.246226	0.204116	1843.163086
7762.646629	0.247090	0.204116	2084.322754
7762.647500	0.090487	0.204116	2163.136963
7762.648539	0.091311	0.204116	2258.009033
7762.649566	0.091490	0.204116	2351.969727
7762.650457	0.091490	0.204116	2433.487793
7762.651383	0.091062	0.204116	2517.811279
7762.652424	0.090974	0.204116	2612.515381
7762.653361	0.090934	0.204116	2697.720459
7762.654225	0.090978	0.204116	2776.325195
7762.655249	0.090641	0.204116	2869.141357
7762.656272	0.090568	0.204116	2961.791992
7763.616238	0.564408	0.260424	268.658203
7763.617122	0.279943	0.260424	516.127441
7763.618086	0.288442	0.260424	794.185913
7763.619161	0.285106	0.260424	1100.675049
7763.620088	0.273571	0.260424	1354.274902
7763.620954	0.257113	0.260424	1576.934814
7763.622040	0.246240	0.260424	1844.351685
7763.623032	0.243032	0.260424	2085.439697
7763.623925	0.090729	0.260424	2166.460449
7763.624906	0.091410	0.260424	2256.133545
7763.625965	0.091458	0.260424	2352.987061
7763.626867	0.091271	0.260424	2435.313232
7763.627724	0.091234	0.260424	2513.500977
7763.628824	0.090952	0.260424	2613.548340
7763.629795	0.090908	0.260424	2701.820312
7763.630657	0.091011	0.260424	2780.271484
7763.631668	0.090590	0.260424	2871.857666
7763.632709	0.090677	0.260424	2966.252930
7764.677565	0.631604	0.197131	269.694885
7764.678641	0.282070	0.197131	573.202515
7764.679642	0.289329	0.197131	862.820435
7764.680518	0.285776	0.197131	1113.160522
7764.681514	0.273318	0.197131	1385.385132
7764.682586	0.253539	0.197131	1657.178711
7764.683487	0.246097	0.197131	1878.912476
7764.684411	0.237858	0.197131	2098.692871
7764.685284	0.090879	0.197131	2178.030273
7764.686217	0.091458	0.197131	2263.360107
7764.687165	0.091311	0.197131	2349.922852
7764.688053	0.091696	0.197131	2431.348389
7764.689014	0.091132	0.197131	2518.925781
7764.689953	0.090970	0.197131	2604.346924
7764.690867	0.090806	0.197131	2687.343262
7764.691739	0.090820	0.197131	2766.538574
7764.692672	0.090732	0.197131	2851.191895
7764.693602	0.090619	0.197131	2935.467529
7765.654477	0.589373	0.249978	256.966431
7765.655433	0.279855	0.249978	524.507568
7765.656405	0.288801	0.249978	805.222412
7765.657328	0.286117	0.249978	1069.308350
7765.658200	0.276310	0.249978	1310.250488
7765.659251	0.257736	0.249978	1581.130615
7765.660128	0.246405	0.249978	1797.227783
7765.661004	0.292434	0.249978	2053.399902
7765.661915	0.090568	0.249978	2135.906982
7765.662921	0.091505	0.249978	2227.961182
7765.663845	0.091381	0.249978	2312.396973
7765.664715	0.091849	0.249978	2392.305908
7765.665712	0.091201	0.249978	2483.233398
7765.666629	0.091165	0.249978	2566.831299
7765.667548	0.091051	0.249978	2650.507080
7765.668409	0.091029	0.249978	2728.883057
7765.669458	0.091007	0.249978	2824.349609
7765.670337	0.091066	0.249978	2904.396240
7766.712775	0.603505	0.211157	262.524506
7766.713657	0.279342	0.211157	508.904205
7766.714670	0.288629	0.211157	801.285522
7766.715713	0.285630	0.211157	1099.197510
7766.716609	0.275024	0.211157	1345.619385
7766.717487	0.258450	0.211157	1572.538208
7766.718589	0.246379	0.211157	1844.048340
7766.719554	0.241501	0.211157	2077.097168
7766.720413	0.090586	0.211157	2154.910400
7766.721460	0.091344	0.211157	2250.547607
7766.722493	0.091403	0.211157	2344.966553
7766.723372	0.091490	0.211157	2425.386719
7766.724289	0.091282	0.211157	2509.092041
7766.725387	0.091014	0.211157	2609.025879
7766.726300	0.090916	0.211157	2692.031738
7766.727167	0.090773	0.211157	2770.731689
7766.728179	0.090725	0.211157	2862.545410
7766.729210	0.090692	0.211157	2956.049072
7767.690168	0.643806	0.254583	270.398590
7767.691156	0.280089	0.254583	547.126587
7767.692222	0.288541	0.254583	854.711548
7767.693129	0.284941	0.254583	1113.153442
7767.693995	0.274010	0.254583	1350.446045
7767.695085	0.254824	0.254583	1628.204468
7767.696056	0.245936	0.254583	1867.008545
7767.696930	0.260775	0.254583	2094.926025
7767.697959	0.090703	0.254583	2188.259521
7767.698999	0.091428	0.254583	2283.344971
7767.699873	0.091571	0.254583	2363.378174
7767.700752	0.091564	0.254583	2443.862793
7767.701852	0.091080	0.254583	2544.051270
7767.702803	0.091274	0.254583	2630.853271
7767.703661	0.091212	0.254583	2709.113281
7767.704670	0.090765	0.254583	2800.695557
7767.705721	0.090688	0.254583	2896.009033
7767.706610	0.091069	0.254583	2976.969727
7768.751176	0.517628	0.207480	292.977570
7768.752227	0.283557	0.207480	590.996094
7768.753115	0.289087	0.207480	847.705261
7768.754015	0.284879	0.207480	1104.096436
7768.755103	0.271066	0.207480	1399.015869
7768.756064	0.252953	0.207480	1642.103516
7768.756928	0.245973	0.207480	1854.624146
7768.757987	0.219961	0.207480	2087.562744
7768.759019	0.090776	0.207480	2181.243896
7768.759898	0.091692	0.207480	2261.841064
7768.760836	0.091300	0.207480	2347.480469
7768.761920	0.091198	0.207480	2446.338623
7768.762830	0.091000	0.207480	2529.148437
7768.763698	0.091344	0.207480	2608.435059
7768.764738	0.090806	0.207480	2702.873047
7768.765757	0.090732	0.207480	2795.329346
7768.766648	0.090751	0.207480	2876.188232
7768.767621	0.090527	0.207480	2964.271240
7769.726404	0.644110	0.252738	278.255585
7769.727331	0.279855	0.252738	537.680908
7769.728411	0.288878	0.252738	849.669312
7769.729361	0.285388	0.252738	1120.788086
7769.730226	0.274691	0.252738	1358.395874
7769.731273	0.255509	0.252738	1625.913818
7769.732301	0.246171	0.252738	1878.977295
7769.733194	0.262009	0.252738	2112.951660
7769.734155	0.090483	0.252738	2199.906250
7769.735203	0.091608	0.252738	2295.911133
7769.736123	0.091333	0.252738	2379.937500
7769.736991	0.091432	0.252738	2459.300293
7769.738062	0.090985	0.252738	2556.745361
7769.739060	0.091102	0.252738	2647.665527
7769.739950	0.091044	0.252738	2728.694336
7769.740908	0.090806	0.252738	2815.686279
7769.741960	0.090670	0.252738	2911.071289
7769.742874	0.090989	0.252738	2994.235107
7770.788367	0.552103	0.208479	280.468445
7770.789297	0.281386	0.208479	542.156982
7770.790167	0.288699	0.208479	793.324890
7770.791218	0.285604	0.208479	1093.494873
7770.792252	0.273153	0.208479	1375.935181
7770.793146	0.256274	0.208479	1605.044556
7770.794124	0.246478	0.208479	1846.100342
7770.795191	0.233042	0.208479	2094.756104
7770.796114	0.090978	0.208479	2178.728516
7770.797038	0.091641	0.208479	2263.404541
7770.797915	0.091765	0.208479	2343.882568
7770.798854	0.091604	0.208479	2429.898682
7770.799805	0.091608	0.208479	2517.017578
7770.800698	0.091377	0.208479	2598.617187
7770.801633	0.091077	0.208479	2683.773926
7770.802596	0.091055	0.208479	2771.459473
7770.803506	0.090820	0.208479	2854.105957
7770.804383	0.090912	0.208479	2933.835693
7771.764163	0.616904	0.254377	263.418121
7771.765048	0.279379	0.254377	510.668213
7771.766036	0.288662	0.254377	795.866333
7771.766967	0.286791	0.254377	1062.868530
7771.767833	0.276987	0.254377	1302.739502
7771.768856	0.258856	0.254377	1567.549438
7771.769756	0.246874	0.254377	1789.735840
7771.770678	0.300952	0.254377	2067.213623
7771.771554	0.090352	0.254377	2146.361572
7771.772558	0.091549	0.254377	2238.276855
7771.773479	0.091384	0.254377	2322.441895
7771.774343	0.091674	0.254377	2401.647949
7771.775354	0.091505	0.254377	2494.159668
7771.776250	0.090952	0.254377	2575.652832
7771.777127	0.091351	0.254377	2655.767822
7771.778075	0.090806	0.254377	2741.851562
7771.779067	0.090912	0.254377	2832.036133
7771.779965	0.090930	0.254377	2913.691406
7772.822988	0.602900	0.214235	263.467468
7772.823853	0.279027	0.214235	504.825867
7772.824928	0.288578	0.214235	815.047119
7772.825850	0.285762	0.214235	1078.519409
7772.826737	0.275350	0.214235	1322.755127
7772.827719	0.257563	0.214235	1575.682495
7772.828736	0.246116	0.214235	1825.982178
7772.829633	0.277269	0.214235	2074.692871
7772.830495	0.090414	0.214235	2152.629639
7772.831596	0.091458	0.214235	2253.324463
7772.832523	0.091681	0.214235	2338.312744
7772.833395	0.091472	0.214235	2418.076416
7772.834387	0.091146	0.214235	2508.493408
7772.835404	0.090974	0.214235	2601.014160
7772.836283	0.090784	0.214235	2680.812988
7772.837139	0.090802	0.214235	2758.539551
7772.838205	0.090560	0.214235	2855.076904
7772.839125	0.090861	0.214235	2938.668701
7773.802941	0.619512	0.256202	265.151031
7773.803804	0.278983	0.256202	505.913483
7773.804896	0.288589	0.256202	821.052490
7773.805801	0.285883	0.256202	1079.776245
7773.806674	0.275958	0.256202	1320.687866
7773.807689	0.258018	0.256202	1582.575684
7773.808689	0.246313	0.256202	1828.889160
7773.809575	0.281089	0.256202	2077.933838
7773.810575	0.090461	0.256202	2168.395264
7773.811617	0.091512	0.256202	2263.751221
7773.812503	0.091527	0.256202	2344.844238
7773.813377	0.091373	0.256202	2424.704590
7773.814462	0.090996	0.256202	2523.435303
7773.815432	0.091154	0.256202	2611.854248
7773.816311	0.091091	0.256202	2691.923584
7773.817313	0.090959	0.256202	2783.064941
7773.818379	0.090688	0.256202	2879.738770
7773.819267	0.090740	0.256202	2960.315674
7774.857763	0.551979	0.214743	282.613129
7774.858720	0.281309	0.214743	551.825439
7774.859580	0.288307	0.214743	799.769348
7774.860640	0.284791	0.214743	1101.648071
7774.861693	0.271751	0.214743	1387.801392
7774.862569	0.254733	0.214743	1610.947266
7774.863508	0.246046	0.214743	1841.984619
7774.864591	0.228501	0.214743	2089.451172
7774.865530	0.090597	0.214743	2174.521729
7774.866393	0.091593	0.214743	2253.566406
7774.867443	0.091395	0.214743	2349.531494
7774.868460	0.091307	0.214743	2442.391113
7774.869349	0.091578	0.214743	2523.804199
7774.870307	0.091183	0.214743	2611.157471
7774.871364	0.091025	0.214743	2707.371338
7774.872296	0.090930	0.214743	2792.118164
7774.873157	0.090857	0.214743	2870.345947
7774.874223	0.090637	0.214743	2966.965332
7775.842253	1.128138	0.260533	496.380920
7775.843120	2.190289	0.260533	2395.361816
7775.844214	2.334580	0.260533	4949.392578
7775.845222	1.595815	0.260533	6557.974609
7775.846100	0.834009	0.260533	7290.234375
7775.847111	0.758221	0.260533	8056.796387
7775.848175	0.728720	0.260533	8832.154297
7775.849074	0.361677	0.260533	9157.301758
7775.849961	0.090648	0.260533	9237.707031
7775.851037	0.091447	0.260533	9336.103516
7775.851986	0.091505	0.260533	9422.941406
7775.852856	0.091641	0.260533	9502.668945
7775.853878	0.091110	0.260533	9595.783203
7775.854914	0.091165	0.260533	9690.229492
7775.855802	0.091139	0.260533	9771.161133
7775.856705	0.090732	0.260533	9853.092773
7775.857785	0.090725	0.260533	9951.076172
7775.858737	0.090828	0.260533	10037.543945
7776.890902	0.552301	0.217691	280.016632
7776.891856	0.281953	0.217691	548.999878
7776.892725	0.289036	0.217691	800.171875
7776.893770	0.285282	0.217691	1098.291504
7776.894819	0.272369	0.217691	1384.006958
7776.895716	0.255018	0.217691	1612.758423
7776.896646	0.246376	0.217691	1841.887817
7776.897723	0.222448	0.217691	2081.463867
7776.898658	0.091022	0.217691	2166.569092
7776.899521	0.091593	0.217691	2245.613770
7776.900584	0.091417	0.217691	2342.790283
7776.901588	0.091069	0.217691	2434.223877
7776.902470	0.091051	0.217691	2514.530762
7776.903436	0.090923	0.217691	2602.362305
7776.904473	0.090780	0.217691	2696.501221
7776.905402	0.090952	0.217691	2780.995850
7776.906260	0.090710	0.217691	2858.825439
7776.907329	0.090667	0.217691	2955.748047
7777.883715	0.470966	0.246067	259.031067
7777.884768	0.283235	0.246067	557.277344
7777.885643	0.288706	0.246067	809.895142
7777.886580	0.284667	0.246067	1076.627930
7777.887651	0.270670	0.246067	1366.515625
7777.888586	0.252810	0.246067	1602.893066
7777.889463	0.245947	0.246067	1818.588867
7777.890528	0.222971	0.246067	2056.053223
7777.891539	0.091128	0.246067	2148.183594
7777.892422	0.091820	0.246067	2229.260742
7777.893386	0.091318	0.246067	2317.291748
7777.894447	0.091458	0.246067	2414.328125
7777.895368	0.091205	0.246067	2498.327881
7777.896225	0.091168	0.246067	2576.458984
7777.897292	0.090765	0.246067	2673.305664
7777.898277	0.090579	0.246067	2762.525635
7777.899173	0.090886	0.246067	2843.959717
7777.900164	0.090634	0.246067	2933.777588
7778.923451	0.630575	0.225728	268.624939
7778.924498	0.281605	0.225728	563.465637
7778.925412	0.289050	0.225728	827.657593
7778.926288	0.286359	0.225728	1078.507812
7778.927175	0.276010	0.225728	1323.328247
7778.928220	0.257739	0.225728	1592.665771
7778.929116	0.246760	0.225728	1813.762939
7778.929995	0.302556	0.225728	2079.709717
7778.931009	0.090370	0.225728	2171.344727
7778.931925	0.091875	0.225728	2255.502197
7778.932844	0.092065	0.225728	2340.110352
7778.933702	0.091432	0.225728	2418.558838
7778.934742	0.091318	0.225728	2513.530029
7778.935637	0.091307	0.225728	2595.250244
7778.936509	0.091102	0.225728	2674.691406
7778.937485	0.090912	0.225728	2763.421387
7778.938438	0.090791	0.225728	2849.945312
7778.939356	0.090948	0.225728	2933.436035
7779.925440	0.644128	0.241285	273.754578
7779.926309	0.278599	0.241285	515.856812
7779.927361	0.288292	0.241285	819.140259
7779.928309	0.285736	0.241285	1090.018066
7779.929186	0.275925	0.241285	1332.004517
7779.930123	0.259021	0.241285	1574.707153
7779.931188	0.246251	0.241285	1836.964722
7779.932086	0.271974	0.241285	2081.197266
7779.932950	0.090480	0.241285	2159.371826
7779.934005	0.091326	0.241285	2255.720459
7779.934961	0.091366	0.241285	2343.066406
7779.935836	0.091630	0.241285	2423.242432
7779.936757	0.091296	0.241285	2507.326416
7779.937824	0.090934	0.241285	2604.352783
7779.938700	0.091208	0.241285	2684.251465
7779.939558	0.090791	0.241285	2762.150146
7779.940599	0.090564	0.241285	2856.427246
7779.941554	0.090736	0.241285	2943.080322
7780.955077	1.139388	0.233627	496.773346
7780.955954	2.202799	0.233627	2428.628174
7780.956940	2.352513	0.233627	4748.206055
7780.957953	1.758278	0.233627	6529.341309
7780.958843	0.865635	0.233627	7299.756348
7780.959708	0.763762	0.233627	7960.410645
7780.960805	0.732803	0.233627	8764.294922
7780.961729	0.484508	0.233627	9211.980469
7780.962588	0.090157	0.233627	9289.425781
7780.963683	0.091421	0.233627	9389.531250
7780.964677	0.091392	0.233627	9480.374023
7780.965553	0.091230	0.233627	9560.291992
7780.966563	0.091227	0.233627	9652.430664
7780.967608	0.091014	0.233627	9747.541016
7780.968502	0.090908	0.233627	9828.812500
7780.969361	0.090941	0.233627	9906.930664
7780.970450	0.090590	0.233627	10005.583008
7780.971421	0.090685	0.233627	10093.637695
7781.967835	0.563445	0.227855	253.550156
7781.968718	0.279543	0.227855	500.387024
7781.969709	0.288424	0.227855	786.215210
7781.970765	0.285249	0.227855	1087.438232
7781.971684	0.273864	0.227855	1339.118774
7781.972553	0.257282	0.227855	1562.696411
7781.973641	0.246259	0.227855	1830.625732
7781.974619	0.251825	0.227855	2076.910645
7781.975492	0.090868	0.227855	2156.238281
7781.976515	0.091498	0.227855	2249.840576
7781.977561	0.091490	0.227855	2345.539551
7781.978437	0.091571	0.227855	2425.755859
7781.979316	0.091285	0.227855	2505.995605
7781.980421	0.090952	0.227855	2606.497803
7781.981384	0.091124	0.227855	2694.250488
7781.982246	0.090905	0.227855	2772.610107
7781.983281	0.090674	0.227855	2866.457520
7781.984328	0.090754	0.227855	2961.477295
7782.988232	0.603439	0.232254	263.702728
7782.989097	0.279547	0.232254	505.510986
7782.990215	0.289105	0.232254	828.730652
7782.991179	0.285634	0.232254	1104.081421
7782.992058	0.274947	0.232254	1345.760254
7782.993071	0.256600	0.232254	1605.696411
7782.994133	0.246328	0.232254	1867.296875
7782.995020	0.264170	0.232254	2101.615723
7782.995906	0.090747	0.232254	2182.017578
7782.997007	0.091509	0.232254	2282.768799
7782.997964	0.091604	0.232254	2370.433838
7782.998831	0.091406	0.232254	2449.683105
7782.999847	0.091176	0.232254	2542.317383
7783.000882	0.090930	0.232254	2636.430176
7783.001771	0.091132	0.232254	2717.446045
7783.002704	0.090846	0.232254	2802.205322
7783.003777	0.090710	0.232254	2899.537598
7783.004717	0.090791	0.232254	2984.881104
7784.008628	0.643934	0.223935	271.096344
7784.009645	0.281221	0.223935	557.097778
7784.010705	0.289233	0.223935	863.685181
7784.011598	0.285615	0.223935	1118.739624
7784.012511	0.273904	0.223935	1368.813721
7784.013596	0.254147	0.223935	1644.562988
7784.014548	0.246262	0.223935	1879.004639
7784.015425	0.238392	0.223935	2088.074707
7784.016470	0.090634	0.223935	2182.786865
7784.017498	0.091483	0.223935	2276.831543
7784.018392	0.091641	0.223935	2358.758301
7784.019348	0.091249	0.223935	2445.992187
7784.020393	0.091055	0.223935	2541.144287
7784.021338	0.091088	0.223935	2627.222168
7784.022197	0.090850	0.223935	2705.261963
7784.023267	0.090758	0.223935	2802.373047
7784.024275	0.090615	0.223935	2893.713135
7784.025154	0.090729	0.223935	2973.463623
7785.020429	0.579499	0.245757	292.647247
7785.021331	0.280811	0.245757	545.938354
7785.022197	0.288688	0.245757	795.941956
7785.023295	0.285271	0.245757	1109.169434
7785.024295	0.272915	0.245757	1382.084473
7785.025193	0.256084	0.245757	1612.047852
7785.026180	0.246379	0.245757	1855.224365
7785.027245	0.205203	0.245757	2073.765137
7785.028136	0.090703	0.245757	2154.581543
7785.029022	0.091443	0.245757	2235.599854
7785.030118	0.091307	0.245757	2335.672852
7785.031086	0.091600	0.245757	2424.342041
7785.031947	0.091256	0.245757	2502.913574
7785.032992	0.090956	0.245757	2597.962402
7785.034008	0.091000	0.245757	2690.418213
7785.034891	0.090996	0.245757	2770.767822
7785.035811	0.090681	0.245757	2854.194580
7785.036887	0.090608	0.245757	2951.688721
7786.050069	0.648278	0.210308	334.511230
7786.051037	0.282100	0.210308	607.583618
7786.051965	0.288889	0.210308	875.672729
7786.052832	0.286187	0.210308	1123.796387
7786.053876	0.274193	0.210308	1410.053955
7786.054774	0.257296	0.210308	1641.105835
7786.055650	0.246698	0.210308	1857.213257
7786.056596	0.225121	0.210308	2070.177490
7786.057612	0.090696	0.210308	2162.324463
7786.058516	0.091498	0.210308	2245.038574
7786.059389	0.091633	0.210308	2325.034424
7786.060501	0.091359	0.210308	2426.625244
7786.061394	0.091230	0.210308	2508.093994
7786.062267	0.091241	0.210308	2587.747803
7786.063161	0.091047	0.210308	2669.144043
7786.064205	0.090710	0.210308	2763.845703
7786.065092	0.090681	0.210308	2844.279785
7786.065967	0.090897	0.210308	2923.814941
7787.054053	0.534683	0.259521	241.141846
7787.054936	0.279265	0.259521	487.732971
7787.055810	0.287827	0.259521	739.293884
7787.056806	0.285736	0.259521	1023.887024
7787.057745	0.275552	0.259521	1282.630127
7787.058628	0.259955	0.259521	1512.170166
7787.059604	0.246918	0.259521	1753.161865
7787.060634	0.290072	0.259521	2051.936035
7787.061522	0.090696	0.259521	2132.473877
7787.062383	0.091278	0.259521	2211.064209
7787.063449	0.091377	0.259521	2308.471924
7787.064368	0.091388	0.259521	2392.457520
7787.065243	0.091304	0.259521	2472.348145
7787.066214	0.090923	0.259521	2560.634277
7787.067240	0.091055	0.259521	2654.056396
7787.068110	0.091230	0.259521	2733.427002
7787.068973	0.090908	0.259521	2811.880859
7787.070021	0.090630	0.259521	2906.861084
7788.088781	0.648992	0.210863	288.152313
7788.089876	0.282546	0.210863	597.540649
7788.090827	0.288853	0.210863	872.239380
7788.091700	0.285121	0.210863	1121.149902
7788.092752	0.271743	0.210863	1407.023682
7788.093785	0.252378	0.210863	1667.730103
7788.094682	0.245760	0.210863	1888.177246
7788.095649	0.204360	0.210863	2085.793701
7788.096710	0.090992	0.210863	2182.336670
7788.097639	0.091597	0.210863	2267.429932
7788.098503	0.091428	0.210863	2346.423828
7788.099588	0.091205	0.210863	2445.381104
7788.100576	0.091223	0.210863	2535.509521
7788.101468	0.091088	0.210863	2616.759766
7788.102446	0.090802	0.210863	2705.564209
7788.103494	0.090718	0.210863	2800.636475
7788.104391	0.091121	0.210863	2882.371582
7788.105249	0.090820	0.210863	2960.295410
7789.090772	0.617366	0.246458	275.962463
7789.091637	0.279525	0.246458	517.751709
7789.092724	0.289069	0.246458	831.969299
7789.093737	0.285256	0.246458	1120.933960
7789.094614	0.274292	0.246458	1361.488037
7789.095592	0.256216	0.246458	1612.067139
7789.096652	0.246112	0.246458	1872.945923
7789.097576	0.249075	0.246458	2103.090820
7789.098440	0.090355	0.246458	2181.157715
7789.099514	0.091370	0.246458	2279.288574
7789.100510	0.091351	0.246458	2370.274414
7789.101403	0.091344	0.246458	2451.844727
7789.102391	0.091135	0.246458	2541.886230
7789.103454	0.091099	0.246458	2638.724121
7789.104348	0.091003	0.246458	2720.081055
7789.105208	0.090732	0.246458	2798.110840
7789.106305	0.090619	0.246458	2897.519775
7789.107279	0.090304	0.246458	2985.475830
7790.125628	0.582228	0.217063	324.883087
7790.126694	0.283370	0.217063	626.955933
7790.127585	0.288886	0.217063	884.352905
7790.128448	0.284791	0.217063	1130.127808
7790.129564	0.270747	0.217063	1432.281494
7790.130541	0.252140	0.217063	1678.622192
7790.131410	0.246152	0.217063	1892.528564
7790.132432	0.223678	0.217063	2121.127441
7790.133470	0.090941	0.217063	2215.524414
7790.134359	0.091794	0.217063	2297.129639
7790.135275	0.091549	0.217063	2380.988525
7790.136353	0.091139	0.217063	2479.236328
7790.137286	0.091271	0.217063	2564.391846
7790.138160	0.091080	0.217063	2643.996094
7790.139200	0.090839	0.217063	2738.468262
7790.140223	0.090934	0.217063	2831.493652
7790.141115	0.090729	0.217063	2912.423828
7790.142046	0.090762	0.217063	2996.923096
7791.126036	0.550811	0.250293	278.710114
7791.127034	0.282579	0.250293	560.724243
7791.127925	0.289065	0.250293	818.281128
7791.128923	0.285234	0.250293	1102.945068
7791.129978	0.272095	0.250293	1390.005005
7791.130879	0.254517	0.250293	1619.324463
7791.131775	0.246240	0.250293	1839.955688
7791.132873	0.230841	0.250293	2093.419189
7791.133823	0.090732	0.250293	2179.614990
7791.134690	0.091447	0.250293	2258.899170
7791.135758	0.091260	0.250293	2356.364502
7791.136784	0.091183	0.250293	2449.918213
7791.137672	0.091578	0.250293	2531.239746
7791.138618	0.090974	0.250293	2617.301270
7791.139651	0.090824	0.250293	2711.122314
7791.140583	0.090729	0.250293	2795.681641
7791.141443	0.090824	0.250293	2873.790283
7791.142509	0.090615	0.250293	2970.386230
7792.164285	0.643217	0.210630	271.437378
7792.165284	0.280239	0.210630	551.396362
7792.166346	0.288970	0.210630	858.282227
7792.167253	0.285450	0.210630	1117.185791
7792.168114	0.274790	0.210630	1353.780029
7792.169207	0.255311	0.210630	1632.835205
7792.170198	0.246163	0.210630	1876.783081
7792.171078	0.269323	0.210630	2113.786865
7792.172060	0.090615	0.210630	2202.770996
7792.173116	0.091652	0.210630	2299.555176
7792.174012	0.091813	0.210630	2381.819336
7792.174876	0.091245	0.210630	2460.655029
7792.175964	0.091102	0.210630	2559.774414
7792.176929	0.090963	0.210630	2647.553955
7792.177813	0.091003	0.210630	2728.000977
7792.178812	0.090714	0.210630	2818.624268
7792.179869	0.090754	0.210630	2914.551758
7792.180760	0.090590	0.210630	2995.267090
7793.162276	0.538458	0.255288	276.229065
7793.163286	0.282385	0.255288	561.438110
7793.164180	0.288937	0.255288	819.747559
7793.165145	0.285282	0.255288	1095.044678
7793.166197	0.272139	0.255288	1381.334473
7793.167122	0.254399	0.255288	1616.653931
7793.167989	0.245925	0.255288	1829.871094
7793.169081	0.217819	0.255288	2067.729004
7793.170083	0.090905	0.255288	2158.815430
7793.170958	0.091696	0.255288	2239.049072
7793.171969	0.091399	0.255288	2331.453369
7793.173022	0.091381	0.255288	2427.677246
7793.173915	0.091230	0.255288	2509.145996
7793.174771	0.091201	0.255288	2587.214111
7793.175867	0.090974	0.255288	2686.921875
7793.176837	0.090765	0.255288	2774.964355
7793.177719	0.090809	0.255288	2855.058105
7793.178710	0.090707	0.255288	2944.948486
7794.201060	0.632018	0.212064	292.624237
7794.201954	0.279921	0.212064	542.873291
7794.202849	0.288494	0.212064	801.075134
7794.203817	0.286575	0.212064	1078.479492
7794.204747	0.276650	0.212064	1335.764404
7794.205614	0.260658	0.212064	1561.754883
7794.206636	0.246925	0.212064	1814.112305
7794.207532	0.277028	0.212064	2062.329102
7794.208457	0.090839	0.212064	2146.354736
7794.209326	0.091633	0.212064	2225.984131
7794.210327	0.091586	0.212064	2317.661377
7794.211251	0.091630	0.212064	2402.327148
7794.212116	0.091432	0.212064	2481.415771
7794.213139	0.091161	0.212064	2574.673340
7794.214020	0.091165	0.212064	2654.989258
7794.214891	0.091091	0.212064	2734.329834
7794.215836	0.090762	0.212064	2820.099609
7794.216801	0.090974	0.212064	2907.889648
7795.199943	0.603292	0.251477	262.432159
7795.200825	0.279518	0.251477	508.966888
7795.201698	0.288706	0.251477	761.007263
7795.202732	0.286868	0.251477	1057.628418
7795.203653	0.276555	0.251477	1312.335693
7795.204579	0.260402	0.251477	1553.467529
7795.205448	0.247251	0.251477	1768.328613
7795.206510	0.291562	0.251477	2077.968018
7795.207389	0.090645	0.251477	2157.644531
7795.208264	0.091633	0.251477	2237.823730
7795.209232	0.091545	0.251477	2326.439697
7795.210170	0.091311	0.251477	2412.089355
7795.211085	0.091458	0.251477	2495.772949
7795.211954	0.091260	0.251477	2575.077637
7795.212995	0.090981	0.251477	2669.789307
7795.213886	0.091263	0.251477	2751.104980
7795.214756	0.090850	0.251477	2830.144043
7795.215685	0.090699	0.251477	2914.403809
7796.236278	0.550664	0.220052	263.768097
7796.237165	0.279990	0.220052	512.119446
7796.238029	0.288585	0.220052	761.457092
7796.239115	0.285927	0.220052	1071.973267
7796.240070	0.274644	0.220052	1334.257812
7796.240948	0.258479	0.220052	1561.202393
7796.241883	0.246702	0.220052	1791.868408
7796.242931	0.262262	0.220052	2066.718994
7796.243817	0.090494	0.220052	2146.896973
7796.244677	0.091545	0.220052	2225.625977
7796.245730	0.091329	0.220052	2321.795898
7796.246670	0.091414	0.220052	2407.724609
7796.247545	0.091699	0.220052	2487.961426
7796.248474	0.091150	0.220052	2572.639648
7796.249557	0.090897	0.220052	2671.081299
7796.250432	0.090927	0.220052	2750.642090
7796.251298	0.090938	0.220052	2829.394043
7796.252330	0.090557	0.220052	2922.848389
7797.236228	0.541113	0.252250	264.063293
7797.237116	0.280148	0.252250	512.834473
7797.237981	0.288519	0.252250	762.403687
7797.239043	0.285637	0.252250	1065.750488
7797.239993	0.274677	0.252250	1326.693237
7797.240872	0.258757	0.252250	1554.140869
7797.241844	0.246519	0.252250	1793.756836
7797.242876	0.270948	0.252250	2073.375732
7797.243763	0.090685	0.252250	2153.813232
7797.244626	0.091534	0.252250	2232.807373
7797.245701	0.091395	0.252250	2331.057373
7797.246658	0.091553	0.252250	2418.673340
7797.247532	0.091370	0.252250	2498.530273
7797.248486	0.091117	0.252250	2585.455811
7797.249514	0.090828	0.252250	2678.826660
7797.250394	0.090963	0.252250	2758.874268
7797.251253	0.090795	0.252250	2836.866943
7797.252316	0.090667	0.252250	2933.245361
7798.273477	0.589179	0.218529	256.881836
7798.274346	0.279313	0.218529	499.604614
7798.275449	0.288757	0.218529	818.103943
7798.276416	0.285509	0.218529	1094.191162
7798.277287	0.274977	0.218529	1333.695923
7798.278328	0.255989	0.218529	1600.180176
7798.279361	0.246152	0.218529	1854.455566
7798.280252	0.264500	0.218529	2090.124512
7798.281197	0.090564	0.218529	2175.707520
7798.282260	0.091406	0.218529	2272.872314
7798.283189	0.091549	0.218529	2357.921387
7798.284047	0.091450	0.218529	2436.385742
7798.285103	0.091036	0.218529	2532.520264
7798.286131	0.091088	0.218529	2626.158447
7798.286999	0.090894	0.218529	2705.053955
7798.287964	0.090908	0.218529	2792.780273
7798.289016	0.090674	0.218529	2888.169189
7798.289940	0.090861	0.218529	2972.124268
7799.272921	0.593101	0.258470	264.522858
7799.273792	0.279031	0.258470	507.558655
7799.274804	0.288259	0.258470	799.277039
7799.275857	0.285172	0.258470	1099.563232
7799.276745	0.274336	0.258470	1343.173584
7799.277645	0.257413	0.258470	1574.845581
7799.278758	0.245984	0.258470	1848.625732
7799.279702	0.250247	0.258470	2084.858398
7799.280565	0.090483	0.258470	2162.945557
7799.281594	0.091326	0.258470	2256.919678
7799.282625	0.091597	0.258470	2351.355957
7799.283508	0.091666	0.258470	2432.297363
7799.284457	0.091121	0.258470	2518.770752
7799.285509	0.090861	0.258470	2614.356201
7799.286449	0.090897	0.258470	2699.799561
7799.287317	0.090853	0.258470	2778.660156
7799.288396	0.090648	0.258470	2876.469482
7799.289402	0.090619	0.258470	2967.632080
7800.309722	0.603673	0.218042	269.841888
7800.310590	0.278958	0.218042	511.976990
7800.311655	0.288347	0.218042	819.066711
7800.312660	0.284872	0.218042	1105.362915
7800.313539	0.274406	0.218042	1346.565308
7800.314512	0.256589	0.218042	1596.226807
7800.315574	0.246002	0.218042	1857.481079
7800.316482	0.257626	0.218042	2091.405273
7800.317346	0.090590	0.218042	2169.674805
7800.318425	0.091351	0.218042	2268.242920
7800.319408	0.091520	0.218042	2358.206787
7800.320305	0.091381	0.218042	2440.175293
7800.321291	0.091040	0.218042	2529.940674
7800.322336	0.090996	0.218042	2625.031494
7800.323231	0.090820	0.218042	2706.315674
7800.324090	0.090952	0.218042	2784.443604
7800.325218	0.090608	0.218042	2886.649414
7800.326183	0.090710	0.218042	2974.185059
7801.311307	0.485830	0.259727	273.036530
7801.312361	0.283652	0.259727	572.006104
7801.313241	0.289094	0.259727	826.409058
7801.314170	0.285128	0.259727	1091.293091
7801.315249	0.271414	0.259727	1384.148315
7801.316183	0.253345	0.259727	1620.772217
7801.317060	0.246086	0.259727	1836.589966
7801.318107	0.225216	0.259727	2072.391113
7801.319139	0.090740	0.259727	2166.034424
7801.320024	0.091842	0.259727	2247.314697
7801.320980	0.091461	0.259727	2334.751465
7801.322044	0.091172	0.259727	2431.758301
7801.322967	0.091073	0.259727	2515.818604
7801.323829	0.091018	0.259727	2594.276123
7801.324906	0.090930	0.259727	2692.208008
7801.325912	0.090875	0.259727	2783.628418
7801.326803	0.091150	0.259727	2864.843018
7801.327790	0.090590	0.259727	2954.254883
7802.345503	0.551499	0.223887	288.433990
7802.346375	0.280364	0.223887	532.911194
7802.347244	0.288314	0.223887	783.456238
7802.348347	0.285099	0.223887	1097.920288
7802.349309	0.273618	0.223887	1361.140991
7802.350171	0.257380	0.223887	1583.002930
7802.351231	0.246079	0.223887	1843.846802
7802.352284	0.227369	0.223887	2083.266846
7802.353158	0.090707	0.223887	2162.544678
7802.354094	0.091421	0.223887	2248.114746
7802.355159	0.091366	0.223887	2345.419434
7802.356095	0.091501	0.223887	2431.064697
7802.356964	0.091230	0.223887	2510.343994
7802.357997	0.090938	0.223887	2604.282471
7802.359017	0.090696	0.223887	2696.792236
7802.359904	0.090974	0.223887	2777.486328
7802.360841	0.090674	0.223887	2862.447754
7802.361890	0.090461	0.223887	2957.341797
7803.349437	0.573523	0.262978	245.467819
7803.350305	0.279419	0.262978	488.003479
7803.351395	0.288728	0.262978	802.717041
7803.352391	0.285187	0.262978	1086.763062
7803.353290	0.274222	0.262978	1333.289062
7803.354295	0.255667	0.262978	1590.233887
7803.355341	0.246079	0.262978	1847.632568
7803.356247	0.235679	0.262978	2061.157471
7803.357105	0.090615	0.262978	2138.905273
7803.358206	0.091432	0.262978	2239.571777
7803.359161	0.091329	0.262978	2326.791260
7803.360034	0.091384	0.262978	2406.569824
7803.361052	0.091121	0.262978	2499.330566
7803.362110	0.090905	0.262978	2595.507568
7803.362987	0.090905	0.262978	2675.230957
7803.363872	0.090674	0.262978	2755.477295
7803.364941	0.090597	0.262978	2852.325439
7803.365904	0.090557	0.262978	2939.531494
7804.380717	0.648688	0.222332	350.940094
7804.381777	0.282894	0.222332	650.808044
7804.382681	0.288633	0.222332	911.732117
7804.383553	0.284821	0.222332	1160.095703
7804.384615	0.271450	0.222332	1448.375732
7804.385613	0.252671	0.222332	1700.541260
7804.386508	0.245852	0.222332	1920.578857
7804.387484	0.215087	0.222332	2130.503418
7804.388540	0.090806	0.222332	2226.394287
7804.389439	0.091549	0.222332	2308.696777
7804.390300	0.091304	0.222332	2387.309326
7804.391395	0.091293	0.222332	2487.274902
7804.392368	0.091201	0.222332	2576.013672
7804.393248	0.090945	0.222332	2656.045166
7804.394261	0.090875	0.222332	2748.101807
7804.395313	0.090784	0.222332	2843.606201
7804.396208	0.090872	0.222332	2924.936279
7804.397085	0.090725	0.222332	3004.502197
7805.388344	0.580228	0.261205	319.705780
7805.389261	0.281448	0.261205	577.793335
7805.390188	0.288501	0.261205	845.233765
7805.391068	0.285370	0.261205	1096.359253
7805.392108	0.273497	0.261205	1380.796387
7805.393003	0.256809	0.261205	1610.640503
7805.393888	0.246427	0.261205	1828.728394
7805.394885	0.259175	0.261205	2087.125732
7805.395832	0.090439	0.261205	2172.771973
7805.396752	0.091710	0.261205	2257.145264
7805.397620	0.091725	0.261205	2336.762451
7805.398661	0.091406	0.261205	2431.916260
7805.399542	0.091227	0.261205	2512.287109
7805.400407	0.090959	0.261205	2590.967041
7805.401338	0.091000	0.261205	2675.687744
7805.402320	0.091088	0.261205	2765.135742
7805.403221	0.090857	0.261205	2846.997803
7805.404113	0.091091	0.261205	2928.251221
7806.413752	0.642843	0.230159	272.565430
7806.414823	0.282048	0.230159	574.639221
7806.415775	0.289124	0.230159	849.884827
7806.416656	0.286102	0.230159	1101.940918
7806.417629	0.274768	0.230159	1369.290283
7806.418648	0.255850	0.230159	1630.000977
7806.419529	0.246438	0.230159	1847.112793
7806.420395	0.290153	0.230159	2098.385010
7806.421466	0.090623	0.230159	2195.441895
7806.422385	0.091758	0.230159	2279.767334
7806.423251	0.091853	0.230159	2359.312012
7806.424194	0.091509	0.230159	2445.604736
7806.425232	0.091311	0.230159	2540.385498
7806.426128	0.091373	0.230159	2622.255859
7806.426995	0.091388	0.230159	2701.489258
7806.428034	0.090820	0.230159	2795.851562
7806.428985	0.091033	0.230159	2882.423584
7806.429862	0.091084	0.230159	2962.304199
7807.429566	0.616007	0.244842	263.651031
7807.430432	0.278881	0.244842	505.161652
7807.431540	0.288497	0.244842	824.816650
7807.432461	0.285370	0.244842	1087.642334
7807.433344	0.274969	0.244842	1330.440430
7807.434362	0.256853	0.244842	1591.916748
7807.435353	0.246211	0.244842	1835.911743
7807.436253	0.268066	0.244842	2077.171387
7807.437109	0.090637	0.244842	2154.756836
7807.438200	0.091619	0.244842	2254.712891
7807.439093	0.091512	0.244842	2336.433594
7807.439974	0.091813	0.244842	2417.320557
7807.440949	0.091212	0.244842	2506.252441
7807.441946	0.090963	0.244842	2596.942627
7807.442837	0.091216	0.244842	2678.215820
7807.443698	0.090802	0.244842	2756.396240
7807.444778	0.090703	0.244842	2854.355713
7807.445703	0.090696	0.244842	2938.249268
7808.446901	0.646241	0.232068	270.775177
7808.447971	0.281627	0.232068	572.116333
7808.448883	0.288864	0.232068	835.559875
7808.449761	0.286110	0.232068	1086.764160
7808.450735	0.274812	0.232068	1354.431030
7808.451765	0.255835	0.232068	1617.941040
7808.452658	0.246409	0.232068	1837.984009
7808.453530	0.290988	0.232068	2091.725098
7808.454606	0.090505	0.232068	2189.108887
7808.455546	0.091597	0.232068	2275.209717
7808.456420	0.091696	0.232068	2355.351562
7808.457379	0.091447	0.232068	2443.048828
7808.458400	0.091190	0.232068	2536.154053
7808.459280	0.091007	0.232068	2616.240234
7808.460141	0.091036	0.232068	2694.622559
7808.461199	0.090883	0.232068	2790.776367
7808.462131	0.090824	0.232068	2875.424316
7808.462994	0.090872	0.232068	2953.846436
7809.471505	0.551334	0.235372	275.667145
7809.472384	0.280854	0.235372	522.538208
7809.473305	0.289065	0.235372	788.767029
7809.474414	0.285564	0.235372	1105.457520
7809.475367	0.273710	0.235372	1366.302856
7809.476236	0.257263	0.235372	1589.864502
7809.477288	0.246398	0.235372	1849.074829
7809.478311	0.206375	0.235372	2060.196045
7809.479210	0.090850	0.235372	2141.869873
7809.480173	0.091406	0.235372	2229.894043
7809.481206	0.091443	0.235372	2324.354492
7809.482132	0.091388	0.235372	2408.979736
7809.482990	0.091293	0.235372	2487.308838
7809.484084	0.090919	0.235372	2586.774414
7809.485084	0.090956	0.235372	2677.730225
7809.485963	0.091113	0.235372	2757.818848
7809.486961	0.090813	0.235372	2848.450195
7809.488011	0.090619	0.235372	2943.600098
7810.478534	0.644938	0.239388	281.837799
7810.479398	0.279181	0.239388	523.050049
7810.480419	0.288721	0.239388	817.833862
7810.481476	0.285626	0.239388	1119.740723
7810.482357	0.275292	0.239388	1362.272705
7810.483286	0.258127	0.239388	1602.073120
7810.484369	0.246453	0.239388	1868.981323
7810.485323	0.247639	0.239388	2105.229004
7810.486190	0.090502	0.239388	2183.694092
7810.487243	0.091311	0.239388	2279.844727
7810.488263	0.091436	0.239388	2373.108887
7810.489154	0.091469	0.239388	2454.607422
7810.490129	0.091091	0.239388	2543.421387
7810.491184	0.091062	0.239388	2639.491699
7810.492103	0.091033	0.239388	2723.150879
7810.492964	0.090696	0.239388	2801.239990
7810.494026	0.090656	0.239388	2897.516113
7810.495020	0.090505	0.239388	2987.478516
7811.512254	0.630253	0.235702	267.857391
7811.513187	0.279441	0.235702	528.575806
7811.514264	0.288633	0.235702	839.433350
7811.515207	0.285136	0.235702	1108.316162
7811.516076	0.274622	0.235702	1346.962280
7811.517124	0.255751	0.235702	1614.989014
7811.518152	0.246039	0.235702	1867.916870
7811.519046	0.246273	0.235702	2088.085205
7811.520003	0.090593	0.235702	2174.782959
7811.521058	0.091494	0.235702	2271.309326
7811.521972	0.091604	0.235702	2355.035400
7811.522831	0.091465	0.235702	2433.603760
7811.523923	0.091040	0.235702	2533.019531
7811.524913	0.090927	0.235702	2623.036865
7811.525808	0.091018	0.235702	2704.498047
7811.526796	0.090872	0.235702	2794.279053
7811.527845	0.090780	0.235702	2889.507324
7811.528743	0.090820	0.235702	2971.063965
7812.510249	0.539432	0.248971	281.044281
7812.511290	0.282975	0.248971	575.621094
7812.512176	0.288896	0.248971	831.583374
7812.513117	0.285062	0.248971	1099.826904
7812.514184	0.271326	0.248971	1389.331421
7812.515119	0.253671	0.248971	1626.513428
7812.515979	0.246343	0.248971	1838.368164
7812.517038	0.232987	0.248971	2085.101562
7812.518057	0.090890	0.248971	2177.718262
7812.518927	0.091589	0.248971	2257.400879
7812.519882	0.091326	0.248971	2344.616943
7812.520944	0.091348	0.248971	2441.628174
7812.521867	0.091271	0.248971	2525.871094
7812.522734	0.091161	0.248971	2604.907471
7812.523789	0.090795	0.248971	2700.695801
7812.524792	0.090820	0.248971	2791.788574
7812.525689	0.091091	0.248971	2873.497559
7812.526659	0.090692	0.248971	2961.468994
7813.554200	0.554575	0.226002	280.615051
7813.555107	0.281100	0.226002	535.572571
7813.555970	0.288867	0.226002	784.864990
7813.557074	0.285513	0.226002	1100.071045
7813.558069	0.272867	0.226002	1371.574219
7813.558947	0.256077	0.226002	1596.409546
7813.559934	0.246445	0.226002	1839.651123
7813.561010	0.226677	0.226002	2083.555908
7813.561891	0.090996	0.226002	2163.723389
7813.562756	0.091498	0.226002	2242.868896
7813.563864	0.091337	0.226002	2344.069824
7813.564837	0.091216	0.226002	2432.822754
7813.565703	0.091362	0.226002	2511.942627
7813.566734	0.090923	0.226002	2605.684082
7813.567778	0.091278	0.226002	2700.978516
7813.568667	0.091044	0.226002	2781.916260
7813.569575	0.090718	0.226002	2864.288086
7813.570649	0.090729	0.226002	2961.730713
7814.543390	0.552327	0.258684	280.581940
7814.544437	0.282957	0.258684	576.837402
7814.545320	0.289116	0.258684	832.127014
7814.546284	0.285278	0.258684	1107.135254
7814.547336	0.271718	0.258684	1392.982056
7814.548274	0.253879	0.258684	1631.120972
7814.549144	0.246189	0.258684	1845.305420
7814.550202	0.207697	0.258684	2065.048340
7814.551209	0.091014	0.258684	2156.699951
7814.552092	0.091351	0.258684	2237.363281
7814.553007	0.091860	0.258684	2321.415527
7814.553869	0.091296	0.258684	2400.113037
7814.554874	0.091187	0.258684	2491.755371
7814.555794	0.091003	0.258684	2575.478516
7814.556661	0.090992	0.258684	2654.368896
7814.557680	0.090696	0.258684	2746.787842
7814.558551	0.090667	0.258684	2825.758301
7814.559455	0.090656	0.258684	2907.710937
7815.594474	0.550283	0.221820	254.230835
7815.595361	0.280089	0.221820	502.669861
7815.596237	0.288827	0.221820	755.682251
7815.597232	0.286648	0.221820	1040.896973
7815.598174	0.276200	0.221820	1301.077393
7815.599054	0.260603	0.221820	1530.408081
7815.600012	0.247288	0.221820	1767.309570
7815.601054	0.282675	0.221820	2061.856445
7815.601944	0.090414	0.221820	2142.324707
7815.602806	0.091296	0.221820	2221.022217
7815.603883	0.091414	0.221820	2319.474609
7815.604813	0.091362	0.221820	2404.441650
7815.605678	0.091630	0.221820	2483.701172
7815.606642	0.091249	0.221820	2571.665039
7815.607677	0.091025	0.221820	2665.876221
7815.608548	0.090912	0.221820	2745.060547
7815.609412	0.090894	0.221820	2823.592529
7815.610449	0.090582	0.221820	2917.526367
7816.576529	0.648076	0.268025	332.463074
7816.577568	0.283147	0.268025	626.652710
7816.578462	0.289431	0.268025	885.404175
7816.579325	0.286366	0.268025	1132.537964
7816.580395	0.273278	0.268025	1424.945068
7816.581336	0.255249	0.268025	1665.134399
7816.582210	0.246515	0.268025	1880.588379
7816.583159	0.242417	0.268025	2110.642090
7816.584211	0.090930	0.268025	2206.300537
7816.585090	0.091439	0.268025	2286.675537
7816.585953	0.091505	0.268025	2365.644531
7816.586974	0.091227	0.268025	2458.787109
7816.587927	0.091326	0.268025	2545.820557
7816.588803	0.091355	0.268025	2625.847412
7816.589712	0.091047	0.268025	2708.609375
7816.590804	0.090809	0.268025	2807.773193
7816.591697	0.090919	0.268025	2888.964111
7816.592561	0.090721	0.268025	2967.347412
7817.633324	0.538912	0.223404	280.234436
7817.634335	0.282751	0.223404	566.096191
7817.635218	0.288922	0.223404	821.214417
7817.636218	0.285044	0.223404	1106.258301
7817.637280	0.271395	0.223404	1394.480103
7817.638167	0.253751	0.223404	1619.557373
7817.639042	0.246248	0.223404	1835.024048
7817.640165	0.214893	0.223404	2076.348389
7817.641125	0.090919	0.223404	2163.630859
7817.641990	0.091461	0.223404	2242.744873
7817.643002	0.091329	0.223404	2335.170166
7817.644050	0.091359	0.223404	2430.914062
7817.644939	0.091179	0.223404	2511.972412
7817.645862	0.090963	0.223404	2595.931396
7817.646944	0.090897	0.223404	2694.282227
7817.647896	0.090901	0.223404	2780.819824
7817.648764	0.090963	0.223404	2859.775879
7817.649814	0.090502	0.223404	2954.802734
7818.612154	0.644989	0.259880	272.830353
7818.613237	0.282070	0.259880	578.312500
7818.614235	0.288849	0.259880	866.583679
7818.615130	0.285088	0.259880	1121.737305
7818.616132	0.272139	0.259880	1394.420166
7818.617181	0.252894	0.259880	1659.706299
7818.618076	0.246097	0.259880	1879.963501
7818.618943	0.258571	0.259880	2104.144043
7818.620056	0.090784	0.259880	2205.186279
7818.621007	0.091443	0.259880	2292.148437
7818.621865	0.091307	0.259880	2370.490234
7818.622930	0.091161	0.259880	2467.576660
7818.623971	0.091106	0.259880	2562.417969
7818.624851	0.091377	0.259880	2642.829590
7818.625767	0.090897	0.259880	2726.091553
7818.626841	0.090835	0.259880	2823.648193
7818.627795	0.091029	0.259880	2910.489990
7818.628665	0.090765	0.259880	2989.455811
7819.670986	0.644641	0.222219	282.997437
7819.671850	0.279137	0.222219	524.171753
7819.672914	0.288816	0.222219	831.471924
7819.673949	0.285154	0.222219	1126.606079
7819.674827	0.274266	0.222219	1367.411987
7819.675790	0.256703	0.222219	1614.616821
7819.676854	0.246178	0.222219	1876.550171
7819.677785	0.262679	0.222219	2121.104736
7819.678648	0.090366	0.222219	2199.090820
7819.679703	0.091454	0.222219	2295.574707
7819.680702	0.091351	0.222219	2386.834717
7819.681590	0.091707	0.222219	2468.270020
7819.682549	0.091234	0.222219	2555.763428
7819.683602	0.091011	0.222219	2651.597656
7819.684521	0.091132	0.222219	2735.347656
7819.685384	0.090985	0.222219	2813.867920
7819.686461	0.090619	0.222219	2911.464355
7819.687446	0.090850	0.222219	3000.951172
7820.647871	0.616274	0.272412	263.765442
7820.648732	0.279229	0.272412	504.181213
7820.649840	0.288831	0.272412	824.205444
7820.650818	0.285201	0.272412	1103.132446
7820.651687	0.274482	0.272412	1341.657715
7820.652767	0.254978	0.272412	1617.033936
7820.653798	0.246152	0.272412	1870.817017
7820.654688	0.249346	0.272412	2092.734619
7820.655628	0.090593	0.272412	2177.892334
7820.656690	0.091458	0.272412	2275.020264
7820.657621	0.091476	0.272412	2360.184326
7820.658482	0.091465	0.272412	2438.935547
7820.659535	0.090985	0.272412	2534.742920
7820.660544	0.090985	0.272412	2626.546875
7820.661415	0.091161	0.272412	2705.947998
7820.662378	0.090710	0.272412	2793.302246
7820.663424	0.090593	0.272412	2888.062744
7820.664352	0.090959	0.272412	2972.473145
7821.709331	0.648135	0.214336	332.493134
7821.710377	0.282975	0.214336	628.484802
7821.711277	0.289006	0.214336	888.590515
7821.712151	0.285476	0.214336	1138.096558
7821.713222	0.271794	0.214336	1429.188477
7821.714173	0.253912	0.214336	1670.659180
7821.715055	0.246266	0.214336	1887.865723
7821.716016	0.235811	0.214336	2114.479736
7821.717061	0.090758	0.214336	2209.322021
7821.717953	0.091575	0.214336	2291.006592
7821.718817	0.091703	0.214336	2370.237793
7821.719855	0.091216	0.214336	2464.919922
7821.720798	0.091289	0.214336	2551.005615
7821.721674	0.091428	0.214336	2631.096680
7821.722605	0.091033	0.214336	2715.848145
7821.723675	0.090736	0.214336	2812.935791
7821.724547	0.090868	0.214336	2892.172607
7821.725412	0.090773	0.214336	2970.690918
7822.684598	0.643759	0.264895	270.378571
7822.685582	0.280005	0.264895	545.903381
7822.686635	0.288856	0.264895	850.068970
7822.687553	0.285231	0.264895	1111.910767
7822.688425	0.273900	0.264895	1350.751709
7822.689516	0.254044	0.264895	1627.913940
7822.690516	0.245837	0.264895	1873.751343
7822.691416	0.246281	0.264895	2095.403809
7822.692425	0.090656	0.264895	2186.875244
7822.693482	0.091428	0.264895	2283.514893
7822.694361	0.091501	0.264895	2363.944580
7822.695234	0.091348	0.264895	2443.691162
7822.696322	0.091165	0.264895	2542.878174
7822.697277	0.091154	0.264895	2629.929932
7822.698137	0.091102	0.264895	2708.277832
7822.699186	0.090740	0.264895	2803.463867
7822.700220	0.090688	0.264895	2897.235840
7822.701086	0.090912	0.264895	2975.965576
7823.746067	1.257308	0.213099	624.882263
7823.747064	2.320031	0.213099	2937.952881
7823.747964	2.354894	0.213099	5057.357422
7823.748950	1.637197	0.213099	6671.633789
7823.750019	0.808154	0.213099	7535.550781
7823.750915	0.754178	0.213099	8211.294922
7823.751793	0.730342	0.213099	8852.535156
7823.752908	0.309130	0.213099	9197.214844
7823.753873	0.090981	0.213099	9285.011719
7823.754738	0.092051	0.213099	9364.635742
7823.755769	0.091329	0.213099	9458.795898
7823.756803	0.091304	0.213099	9553.204102
7823.757696	0.090989	0.213099	9634.457031
7823.758624	0.091091	0.213099	9718.990234
7823.759679	0.090974	0.213099	9814.967773
7823.760627	0.091187	0.213099	9901.412109
7823.761490	0.090718	0.213099	9979.701172
7823.762542	0.090634	0.213099	10075.047852
7824.721334	0.647490	0.264839	271.945923
7824.722373	0.281426	0.264839	564.347290
7824.723421	0.288929	0.264839	867.145386
7824.724319	0.285125	0.264839	1123.187256
7824.725274	0.273010	0.264839	1383.912109
7824.726331	0.253213	0.264839	1651.558105
7824.727275	0.245973	0.264839	1883.756592
7824.728144	0.254330	0.264839	2104.769287
7824.729211	0.090663	0.264839	2201.506592
7824.730204	0.091710	0.264839	2292.574707
7824.731099	0.091505	0.264839	2374.471680
7824.732075	0.091260	0.264839	2463.541260
7824.733129	0.091150	0.264839	2559.613281
7824.734033	0.091205	0.264839	2642.062500
7824.734894	0.091073	0.264839	2720.476318
7824.735967	0.090791	0.264839	2817.895020
7824.736958	0.090714	0.264839	2907.792725
7824.737833	0.090967	0.264839	2987.388672
7825.782280	0.579653	0.216805	289.826660
7825.783309	0.282913	0.216805	580.943726
7825.784206	0.289252	0.216805	840.402466
7825.785168	0.285458	0.216805	1115.012817
7825.786212	0.271776	0.216805	1398.747070
7825.787149	0.253883	0.216805	1636.635498
7825.788016	0.246328	0.216805	1850.202026
7825.789092	0.234452	0.216805	2102.472168
7825.790092	0.090707	0.216805	2193.178955
7825.790966	0.091992	0.216805	2273.580078
7825.791946	0.091417	0.216805	2363.168945
7825.793003	0.091494	0.216805	2459.878174
7825.793913	0.091436	0.216805	2543.084473
7825.794772	0.091219	0.216805	2621.441895
7825.795839	0.090828	0.216805	2718.354980
7825.796819	0.090963	0.216805	2807.498779
7825.797708	0.090721	0.216805	2888.150146
7825.798698	0.090469	0.216805	2977.714111
7826.758073	0.645699	0.265636	272.485168
7826.759165	0.282715	0.265636	581.209778
7826.760133	0.289464	0.265636	861.411011
7826.761025	0.285721	0.265636	1116.274536
7826.762049	0.272494	0.265636	1395.308350
7826.763109	0.252686	0.265636	1663.155029
7826.764000	0.246237	0.265636	1882.551758
7826.764919	0.247148	0.265636	2109.681152
7826.765996	0.090641	0.265636	2207.301270
7826.766946	0.091348	0.265636	2294.081543
7826.767811	0.091560	0.265636	2373.281006
7826.768849	0.091161	0.265636	2467.906006
7826.769881	0.091307	0.265636	2562.135254
7826.770769	0.091278	0.265636	2643.190186
7826.771719	0.090927	0.265636	2729.570312
7826.772778	0.090641	0.265636	2825.559082
7826.773718	0.091003	0.265636	2911.102295
7826.774582	0.090685	0.265636	2989.454102
7827.819594	0.485094	0.213196	270.682434
7827.820496	0.281525	0.213196	524.617676
7827.821372	0.288911	0.213196	777.703857
7827.822243	0.286267	0.213196	1027.042480
7827.823294	0.274036	0.213196	1315.053955
7827.824192	0.257413	0.213196	1546.211182
7827.825071	0.246647	0.213196	1763.013672
7827.826074	0.277354	0.213196	2041.199219
7827.827018	0.090582	0.213196	2126.708984
7827.827943	0.091725	0.213196	2211.554443
7827.828809	0.091571	0.213196	2290.854980
7827.829853	0.091326	0.213196	2386.198975
7827.830741	0.091154	0.213196	2467.143311
7827.831615	0.091348	0.213196	2546.981201
7827.832612	0.090776	0.213196	2637.485352
7827.833548	0.090967	0.213196	2722.630371
7827.834468	0.090703	0.213196	2806.077148
7827.835327	0.090897	0.213196	2884.157959
7828.795436	0.664581	0.262321	358.873901
7828.796458	0.282949	0.262321	648.047974
7828.797346	0.288886	0.262321	904.578308
7828.798210	0.285337	0.262321	1151.109375
7828.799300	0.271934	0.262321	1447.516968
7828.800238	0.253989	0.262321	1685.758911
7828.801112	0.246112	0.262321	1900.860840
7828.802113	0.235558	0.262321	2136.654297
7828.803110	0.090388	0.262321	2226.771240
7828.803993	0.091545	0.262321	2307.605957
7828.804849	0.091611	0.262321	2386.025146
7828.805938	0.091245	0.262321	2485.391113
7828.806856	0.091256	0.262321	2569.164307
7828.807721	0.091176	0.262321	2648.031250
7828.808684	0.091106	0.262321	2735.766357
7828.809713	0.090886	0.262321	2829.288330
7828.810604	0.090681	0.262321	2910.085205
7828.811469	0.090590	0.262321	2988.445312
7829.856253	0.550829	0.218731	264.948700
7829.857137	0.280298	0.218731	512.731995
7829.858102	0.288666	0.218731	791.294434
7829.859163	0.285242	0.218731	1093.935913
7829.860099	0.273402	0.218731	1349.840332
7829.860961	0.256923	0.218731	1571.307617
7829.862038	0.246343	0.218731	1836.618774
7829.863054	0.201973	0.218731	2041.822998
7829.863931	0.090656	0.218731	2121.327881
7829.864917	0.091359	0.218731	2211.407471
7829.865971	0.091479	0.218731	2307.826904
7829.866858	0.091395	0.218731	2388.894531
7829.867726	0.091307	0.218731	2468.149414
7829.868801	0.090868	0.218731	2565.832520
7829.869791	0.091091	0.218731	2656.012939
7829.870681	0.091110	0.218731	2737.100586
7829.871665	0.090718	0.218731	2826.366943
7829.872715	0.090560	0.218731	2921.455322
7830.831683	1.292684	0.268118	725.195923
7830.832726	2.343973	0.268118	3169.959961
7830.833620	2.330512	0.268118	5253.437500
7830.834532	1.598888	0.268118	6711.623047
7830.835617	0.801617	0.268118	7581.377930
7830.836562	0.750055	0.268118	8290.179687
7830.837428	0.728232	0.268118	8920.829102
7830.838496	0.308284	0.268118	9250.076172
7830.839522	0.090828	0.268118	9343.265625
7830.840396	0.091725	0.268118	9423.433594
7830.841355	0.091179	0.268118	9510.874023
7830.842420	0.091381	0.268118	9608.194336
7830.843331	0.091088	0.268118	9691.174805
7830.844199	0.091274	0.268118	9770.401367
7830.845256	0.090839	0.268118	9866.417969
7830.846264	0.090941	0.268118	9958.086914
7830.847153	0.090721	0.268118	10038.738281
7830.848126	0.090656	0.268118	10126.946289
7831.893439	0.647900	0.221446	276.005585
7831.894318	0.279591	0.221446	521.766113
7831.895418	0.288842	0.221446	839.491821
7831.896387	0.285293	0.221446	1115.940674
7831.897261	0.274482	0.221446	1355.838379
7831.898298	0.255081	0.221446	1620.356934
7831.899347	0.246130	0.221446	1878.547607
7831.900246	0.249965	0.221446	2103.265869
7831.901202	0.090524	0.221446	2189.806396
7831.902251	0.091410	0.221446	2285.695312
7831.903181	0.091857	0.221446	2371.122070
7831.904049	0.091337	0.221446	2450.402344
7831.905098	0.091003	0.221446	2545.864990
7831.906107	0.091176	0.221446	2637.861084
7831.906996	0.091073	0.221446	2718.824951
7831.907964	0.090857	0.221446	2806.774414
7831.909001	0.090736	0.221446	2900.867676
7831.909920	0.090773	0.221446	2984.287842
7832.869348	0.591665	0.275611	275.715912
7832.870226	0.279723	0.275611	521.312622
7832.871199	0.288633	0.275611	802.152344
7832.872261	0.285377	0.275611	1105.222900
7832.873171	0.274025	0.275611	1354.585327
7832.874036	0.257318	0.275611	1577.165527
7832.875125	0.246445	0.275611	1845.544434
7832.876134	0.249778	0.275611	2097.570312
7832.877012	0.090791	0.275611	2177.284912
7832.878022	0.091479	0.275611	2269.679199
7832.879079	0.091439	0.275611	2366.330566
7832.879974	0.091425	0.275611	2448.155518
7832.880830	0.091304	0.275611	2526.311523
7832.881917	0.090985	0.275611	2625.212402
7832.882894	0.091234	0.275611	2714.348145
7832.883757	0.090824	0.275611	2792.729248
7832.884802	0.090784	0.275611	2887.598145
7832.885851	0.090601	0.275611	2982.638184
