time (s)	coil I (A)	last det (V)	int current (uC)
5503.714403	1.199480	0.130850	678.905640
5503.715446	1.530747	0.130850	2275.474854
5503.716339	1.501989	0.130850	3616.750488
5503.717288	1.460548	0.130850	5002.810547
5503.718354	1.416156	0.130850	6512.432617
5503.719283	1.378711	0.130850	7793.254883
5503.720145	1.345016	0.130850	8952.658203
5503.721201	1.306652	0.130850	10332.482422
5503.722225	1.271045	0.130850	11634.032227
5503.723116	1.240950	0.130850	12739.718750
5503.724090	1.208690	0.130850	13916.983398
5503.725145	1.174768	0.130850	15156.363281
5503.726069	1.146321	0.130850	16215.563477
5503.726944	1.122620	0.130850	17197.855469
5503.728041	1.094700	0.130850	18398.740234
5503.729044	0.590105	0.130850	18990.615234
5503.729933	0.093322	0.130850	19073.578125
5503.730920	0.090011	0.130850	19162.419922
5503.731983	0.090044	0.130850	19258.136719
5503.732869	0.089949	0.130850	19337.832031
5503.733735	0.089934	0.130850	19415.714844
5503.734835	0.090073	0.130850	19514.794922
5503.735807	0.089971	0.130850	19602.246094
5503.736668	0.090033	0.130850	19679.763672
5503.737695	0.090040	0.130850	19772.234375
5503.738727	0.090033	0.130850	19865.148437
5504.627216	1.094718	0.192903	558.306152
5504.628269	1.529279	0.192903	2168.636475
5504.629202	1.502476	0.192903	3570.446289
5504.630062	1.464181	0.192903	4829.641602
5504.631095	1.420748	0.192903	6297.274414
5504.632112	1.379982	0.192903	7700.715820
5504.633007	1.345778	0.192903	8905.186523
5504.633977	1.310651	0.192903	10176.517578
5504.635035	1.273528	0.192903	11523.910156
5504.635963	1.242125	0.192903	12676.602539
5504.636833	1.212059	0.192903	13731.093750
5504.637909	1.178167	0.192903	14998.800781
5504.638913	1.146921	0.192903	16150.309570
5504.639804	1.123700	0.192903	17151.525391
5504.640686	1.101317	0.192903	18122.886719
5504.641672	0.826747	0.192903	18938.058594
5504.642616	0.107607	0.192903	19039.640625
5504.643535	0.089974	0.192903	19122.326172
5504.644400	0.090026	0.192903	19200.199219
5504.645436	0.089989	0.192903	19293.427734
5504.646321	0.089971	0.192903	19373.052734
5504.647187	0.090026	0.192903	19451.015625
5504.648135	0.089938	0.192903	19536.277344
5504.649091	0.089960	0.192903	19622.279297
5504.650004	0.090004	0.192903	19704.453125
5504.650877	0.090004	0.192903	19783.025391
5505.760186	1.074016	0.144156	454.308807
5505.761306	1.529564	0.144156	2167.420654
5505.762274	1.501926	0.144156	3621.285156
5505.763142	1.463613	0.144156	4891.701172
5505.764183	1.420375	0.144156	6370.311523
5505.765219	1.378843	0.144156	7798.792969
5505.766118	1.343796	0.144156	9006.866211
5505.767047	1.310006	0.144156	10223.861328
5505.768101	1.273000	0.144156	11565.603516
5505.769048	1.241206	0.144156	12741.025391
5505.769913	1.212041	0.144156	13789.441406
5505.770958	1.178833	0.144156	15021.322266
5505.771978	1.147233	0.144156	16191.500000
5505.772861	1.124008	0.144156	17183.998047
5505.773729	1.101394	0.144156	18140.007812
5505.774691	0.854747	0.144156	18962.275391
5505.775659	0.112299	0.144156	19070.980469
5505.776565	0.089996	0.144156	19152.517578
5505.777443	0.089956	0.144156	19231.498047
5505.778457	0.089967	0.144156	19322.724609
5505.779367	0.089956	0.144156	19404.583984
5505.780252	0.090000	0.144156	19484.234375
5505.781136	0.090077	0.144156	19563.863281
5505.782164	0.090007	0.144156	19656.390625
5505.783054	0.090011	0.144156	19736.500000
5505.783911	0.090029	0.144156	19813.654297
5506.661888	1.118540	0.196681	535.780701
5506.662768	1.527294	0.196681	1879.799072
5506.663736	1.509569	0.196681	3341.062012
5506.664781	1.463873	0.196681	4870.809570
5506.665709	1.424440	0.196681	6192.689453
5506.666571	1.388745	0.196681	7389.787598
5506.667629	1.348788	0.196681	8816.804687
5506.668635	1.311775	0.196681	10136.450195
5506.669513	1.280797	0.196681	11260.990234
5506.670493	1.247754	0.196681	12483.789062
5506.671552	1.212488	0.196681	13767.813477
5506.672461	1.182521	0.196681	14842.724609
5506.673329	1.154601	0.196681	15844.917969
5506.674406	1.125762	0.196681	17057.363281
5506.675406	1.100039	0.196681	18157.402344
5506.676302	0.909825	0.196681	18972.605469
5506.677289	0.121926	0.196681	19092.947266
5506.678353	0.089930	0.196681	19188.632812
5506.679248	0.090037	0.196681	19269.214844
5506.680116	0.090070	0.196681	19347.394531
5506.681228	0.090066	0.196681	19447.546875
5506.682182	0.090026	0.196681	19533.431641
5506.683048	0.090018	0.196681	19611.386719
5506.684073	0.090026	0.196681	19703.662109
5506.685099	0.090055	0.196681	19796.058594
5506.685985	0.089960	0.196681	19875.763672
5507.799992	1.072559	0.141525	454.764862
5507.801098	1.528803	0.141525	2145.620361
5507.802057	1.502527	0.141525	3586.543457
5507.802930	1.464133	0.141525	4864.731934
5507.803947	1.421503	0.141525	6310.400391
5507.804985	1.380055	0.141525	7742.897461
5507.805879	1.345331	0.141525	8945.623047
5507.806794	1.311573	0.141525	10145.712891
5507.807879	1.274191	0.141525	11528.209961
5507.808829	1.242107	0.141525	12708.211914
5507.809698	1.212931	0.141525	13762.249023
5507.810754	1.178818	0.141525	15007.081055
5507.811776	1.147277	0.141525	16179.597656
5507.812670	1.123418	0.141525	17183.933594
5507.813636	1.099307	0.141525	18245.863281
5507.814701	0.675553	0.141525	18965.328125
5507.815622	0.095317	0.141525	19053.115234
5507.816482	0.089879	0.141525	19130.412109
5507.817541	0.090073	0.141525	19225.798828
5507.818546	0.090029	0.141525	19316.277344
5507.819424	0.090000	0.141525	19395.296875
5507.820412	0.090037	0.141525	19484.253906
5507.821457	0.089916	0.141525	19578.216797
5507.822360	0.090022	0.141525	19659.505859
5507.823217	0.090007	0.141525	19736.642578
5507.824301	0.090044	0.141525	19834.250000
5508.700187	1.110103	0.199199	579.473511
5508.701248	1.529161	0.199199	2201.913574
5508.702176	1.501476	0.199199	3595.283203
5508.703039	1.462804	0.199199	4857.683105
5508.704122	1.418661	0.199199	6394.092773
5508.705130	1.377883	0.199199	7782.999023
5508.706005	1.343965	0.199199	8958.968750
5508.706981	1.308633	0.199199	10236.194336
5508.708046	1.271700	0.199199	11590.555664
5508.708951	1.240847	0.199199	12713.522461
5508.709822	1.210562	0.199199	13767.921875
5508.710906	1.176907	0.199199	15043.688477
5508.711890	1.146196	0.199199	16171.545898
5508.712792	1.123015	0.199199	17184.505859
5508.713782	1.097402	0.199199	18270.933594
5508.714846	0.637101	0.199199	18948.808594
5508.715730	0.094468	0.199199	19032.318359
5508.716612	0.089963	0.199199	19111.666016
5508.717694	0.090015	0.199199	19209.062500
5508.718654	0.089908	0.199199	19295.375000
5508.719517	0.089941	0.199199	19372.994141
5508.720544	0.090062	0.199199	19465.488281
5508.721570	0.089894	0.199199	19557.718750
5508.722452	0.089934	0.199199	19637.041016
5508.723325	0.089908	0.199199	19715.531250
5508.724238	0.089927	0.199199	19797.634766
5509.840924	1.136770	0.136184	576.342407
5509.841879	1.529868	0.136184	2037.366577
5509.842745	1.509012	0.136184	3344.171387
5509.843796	1.463873	0.136184	4882.702148
5509.844839	1.420107	0.136184	6363.874023
5509.845716	1.383647	0.136184	7577.333008
5509.846600	1.349854	0.136184	8770.603516
5509.847547	1.315118	0.136184	10016.020508
5509.848528	1.280522	0.136184	11272.212891
5509.849438	1.249783	0.136184	12409.515625
5509.850322	1.219926	0.136184	13487.929687
5509.851380	1.186403	0.136184	14743.143555
5509.852271	1.157622	0.136184	15774.584961
5509.853154	1.131617	0.136184	16773.802734
5509.854039	1.110253	0.136184	17756.376953
5509.855090	1.052845	0.136184	18862.917969
5509.855993	0.218221	0.136184	19059.972656
5509.856861	0.089923	0.136184	19138.025391
5509.857861	0.090033	0.136184	19228.058594
5509.858762	0.090007	0.136184	19309.154297
5509.859639	0.090029	0.136184	19388.109375
5509.860614	0.090026	0.136184	19475.884766
5509.861623	0.090018	0.136184	19566.712891
5509.862506	0.090026	0.136184	19646.205078
5509.863365	0.090029	0.136184	19723.541016
5509.864433	0.090092	0.136184	19819.759766
5510.741030	1.146035	0.214196	592.500183
5510.741951	1.529330	0.214196	2001.012939
5510.742814	1.508837	0.214196	3303.138916
5510.743894	1.463024	0.214196	4883.204590
5510.744893	1.420858	0.214196	6302.641602
5510.745777	1.384962	0.214196	7526.948242
5510.746758	1.347839	0.214196	8849.178711
5510.747819	1.309047	0.214196	10238.077148
5510.748727	1.276732	0.214196	11397.349609
5510.749590	1.246597	0.214196	12473.162109
5510.750668	1.211642	0.214196	13779.312500
5510.751665	1.179280	0.214196	14955.054687
5510.752539	1.151781	0.214196	15961.710937
5510.753526	1.125304	0.214196	17072.386719
5510.754596	1.098190	0.214196	18247.449219
5510.755495	0.826201	0.214196	18990.203125
5510.756369	0.112350	0.214196	19088.396484
5510.757471	0.090011	0.214196	19187.587891
5510.758433	0.090040	0.214196	19274.207031
5510.759304	0.090007	0.214196	19352.603516
5510.760335	0.090033	0.214196	19445.427734
5510.761376	0.090018	0.214196	19539.136719
5510.762267	0.089930	0.214196	19619.265625
5510.763160	0.090092	0.214196	19699.716797
5510.764239	0.090099	0.214196	19796.933594
5510.765196	0.090103	0.214196	19883.162109
5511.885750	1.047078	0.137533	440.819702
5511.886735	1.524697	0.137533	1942.646484
5511.887807	1.503021	0.137533	3553.885254
5511.888712	1.463123	0.137533	4878.011230
5511.889578	1.425242	0.137533	6112.270508
5511.890684	1.381999	0.137533	7640.761719
5511.891649	1.345049	0.137533	8938.733398
5511.892513	1.313207	0.137533	10073.343750
5511.893591	1.276080	0.137533	11448.958008
5511.894619	1.241331	0.137533	12725.045898
5511.895509	1.211030	0.137533	13802.863281
5511.896451	1.180778	0.137533	14915.156250
5511.897517	1.147961	0.137533	16138.882812
5511.898451	1.123678	0.137533	17188.398437
5511.899312	1.100790	0.137533	18136.177734
5511.900378	0.745719	0.137533	18931.113281
5511.901397	0.095958	0.137533	19028.894531
5511.902268	0.089861	0.137533	19107.164062
5511.903222	0.090051	0.137533	19193.072266
5511.904266	0.090026	0.137533	19287.058594
5511.905189	0.089941	0.137533	19370.074219
5511.906054	0.089916	0.137533	19447.851562
5511.907114	0.090143	0.137533	19543.402344
5511.908117	0.089941	0.137533	19633.613281
5511.909010	0.089974	0.137533	19713.960937
5511.909974	0.090059	0.137533	19800.777344
5512.775608	1.048015	0.213991	441.214355
5512.776598	1.523632	0.213991	1949.609619
5512.777651	1.502963	0.213991	3532.229492
5512.778564	1.462862	0.213991	4867.823242
5512.779428	1.424967	0.213991	6098.994629
5512.780521	1.382388	0.213991	7609.944336
5512.781510	1.344287	0.213991	8939.444336
5512.782401	1.311867	0.213991	10108.317383
5512.783401	1.277454	0.213991	11385.770508
5512.784453	1.241913	0.213991	12692.262695
5512.785339	1.211506	0.213991	13765.657227
5512.786228	1.182129	0.213991	14816.570312
5512.787319	1.149298	0.213991	16070.454102
5512.788273	1.124249	0.213991	17142.988281
5512.789133	1.101661	0.213991	18090.417969
5512.790161	0.798373	0.213991	18911.144531
5512.791224	0.099313	0.213991	19016.714844
5512.792098	0.089952	0.213991	19095.333984
5512.793033	0.090011	0.213991	19179.494141
5512.794095	0.089978	0.213991	19275.050781
5512.795030	0.090000	0.213991	19359.201172
5512.795894	0.089982	0.213991	19436.945312
5512.796947	0.089993	0.213991	19531.707031
5512.797957	0.089974	0.213991	19622.582031
5512.798844	0.090022	0.213991	19702.431641
5512.799718	0.089996	0.213991	19781.087891
5513.925601	1.110392	0.147262	515.221802
5513.926488	1.526576	0.147262	1869.294678
5513.927475	1.508895	0.147262	3358.574219
5513.928402	1.467601	0.147262	4719.040527
5513.929324	1.429113	0.147262	6036.682129
5513.930191	1.392656	0.147262	7244.115234
5513.931234	1.353340	0.147262	8655.648437
5513.932120	1.320392	0.147262	9825.515625
5513.932984	1.288949	0.147262	10939.167969
5513.934089	1.252654	0.147262	12323.350586
5513.935006	1.221434	0.147262	13443.406250
5513.935875	1.192533	0.147262	14479.717773
5513.936848	1.162335	0.147262	15610.669922
5513.937876	1.131782	0.147262	16774.142578
5513.938775	1.110630	0.147262	17772.599609
5513.939643	1.079407	0.147262	18709.525391
5513.940723	0.239656	0.147262	18968.353516
5513.941664	0.089901	0.147262	19052.951172
5513.942525	0.090081	0.147262	19130.509766
5513.943601	0.090106	0.147262	19227.464844
5513.944590	0.090059	0.147262	19316.533203
5513.945482	0.089993	0.147262	19396.806641
5513.946449	0.090062	0.147262	19483.896484
5513.947495	0.090051	0.147262	19578.089844
5513.948404	0.090033	0.147262	19659.929687
5513.949264	0.090055	0.147262	19737.376953
5514.813471	1.142230	0.221701	583.679687
5514.814477	1.529590	0.221701	2122.447021
5514.815370	1.504702	0.221701	3466.145996
5514.816351	1.462504	0.221701	4900.862305
5514.817406	1.418079	0.221701	6396.935059
5514.818326	1.380930	0.221701	7667.390625
5514.819193	1.346506	0.221701	8834.811523
5514.820286	1.307780	0.221701	10264.214844
5514.821276	1.272850	0.221701	11524.336914
5514.822181	1.242678	0.221701	12648.960937
5514.823167	1.209935	0.221701	13841.957031
5514.824230	1.176156	0.221701	15092.210937
5514.825136	1.147548	0.221701	16131.888672
5514.826025	1.123290	0.221701	17130.494141
5514.827123	1.095740	0.221701	18333.617187
5514.828077	0.692578	0.221701	18994.335937
5514.828936	0.098635	0.221701	19079.064453
5514.829970	0.090077	0.221701	19172.203125
5514.830995	0.090099	0.221701	19264.554687
5514.831875	0.090004	0.221701	19343.757812
5514.832818	0.090154	0.221701	19428.773437
5514.833879	0.090146	0.221701	19524.417969
5514.834816	0.090084	0.221701	19608.826172
5514.835673	0.090018	0.221701	19685.972656
5514.836714	0.090183	0.221701	19779.853516
5514.837730	0.090146	0.221701	19871.441406
5515.967493	1.113369	0.137151	552.231079
5515.968373	1.527360	0.137151	1896.307495
5515.969289	1.509470	0.137151	3278.982178
5515.970373	1.463481	0.137151	4865.395996
5515.971310	1.423854	0.137151	6199.546875
5515.972177	1.388298	0.137151	7403.201660
5515.973219	1.348121	0.137151	8807.944336
5515.974247	1.310552	0.137151	10155.191406
5515.975142	1.279230	0.137151	11300.101562
5515.976099	1.246915	0.137151	12493.399414
5515.977161	1.211367	0.137151	13779.871094
5515.978091	1.181126	0.137151	14878.318359
5515.978963	1.154070	0.137151	15884.666992
5515.980024	1.125150	0.137151	17078.451172
5515.981030	1.099446	0.137151	18184.494141
5515.981919	0.891833	0.137151	18977.333984
5515.982887	0.123300	0.137151	19096.687500
5515.983944	0.090055	0.137151	19191.875000
5515.984859	0.090022	0.137151	19274.244141
5515.985718	0.089985	0.137151	19351.541016
5515.986793	0.090029	0.137151	19448.322266
5515.987774	0.090000	0.137151	19536.611328
5515.988644	0.090022	0.137151	19614.929687
5515.989622	0.090062	0.137151	19703.009766
5515.990652	0.090000	0.137151	19795.708984
5515.991551	0.090037	0.137151	19876.652344
5516.852154	1.050443	0.233097	442.236511
5516.853206	1.526678	0.233097	2048.302246
5516.854233	1.501384	0.233097	3590.224121
5516.855120	1.462500	0.233097	4887.461426
5516.856098	1.422220	0.233097	6278.393066
5516.857144	1.379601	0.233097	7721.455566
5516.858060	1.344247	0.233097	8952.785156
5516.858922	1.311815	0.233097	10083.570312
5516.859979	1.275125	0.233097	11431.376953
5516.860992	1.241195	0.233097	12688.707031
5516.861883	1.211360	0.233097	13768.028320
5516.862866	1.180184	0.233097	14928.149414
5516.863930	1.147368	0.233097	16148.949219
5516.864838	1.123260	0.233097	17168.869141
5516.865706	1.099783	0.233097	18123.480469
5516.866816	0.715543	0.233097	18917.734375
5516.867785	0.095555	0.233097	19010.328125
5516.868651	0.089945	0.233097	19088.220703
5516.869722	0.090092	0.233097	19184.708984
5516.870765	0.090077	0.233097	19278.660156
5516.871661	0.090059	0.233097	19359.353516
5516.872535	0.090048	0.233097	19438.054687
5516.873427	0.089993	0.233097	19518.328125
5516.874446	0.089960	0.233097	19609.998047
5516.875361	0.090018	0.233097	19692.365234
5516.876237	0.089960	0.233097	19771.169922
5518.004677	1.064498	0.149417	457.734283
5518.005549	1.523774	0.149417	1786.465576
5518.006415	1.513411	0.149417	3097.079102
5518.007478	1.469202	0.149417	4658.840332
5518.008371	1.431420	0.149417	5937.098145
5518.009237	1.395040	0.149417	7145.203125
5518.010310	1.354329	0.149417	8598.397461
5518.011239	1.319528	0.149417	9824.238281
5518.012124	1.288506	0.149417	10964.566406
5518.013110	1.255536	0.149417	12202.524414
5518.014120	1.221273	0.149417	13436.010742
5518.015008	1.191724	0.149417	14494.261719
5518.015869	1.163990	0.149417	15496.457031
5518.016923	1.133383	0.149417	16691.042969
5518.017848	1.111681	0.149417	17719.347656
5518.018730	1.086555	0.149417	18677.689453
5518.019695	0.397965	0.149417	19061.726562
5518.020721	0.089894	0.149417	19153.957031
5518.021608	0.090015	0.149417	19233.800781
5518.022544	0.090066	0.149417	19318.101562
5518.023593	0.089993	0.149417	19412.503906
5518.024533	0.089923	0.149417	19497.031250
5518.025399	0.089963	0.149417	19574.939453
5518.026456	0.090073	0.149417	19670.146484
5518.027460	0.089930	0.149417	19760.437500
5518.028354	0.089916	0.149417	19840.822266
5518.029317	0.089978	0.149417	19927.470703
5518.887885	1.075521	0.233166	472.153809
5518.888749	1.522994	0.233166	1788.020996
5518.889836	1.505493	0.233166	3424.492187
5518.890835	1.461943	0.233166	4884.973633
5518.891713	1.425117	0.233166	6136.226562
5518.892713	1.385208	0.233166	7521.434082
5518.893762	1.344884	0.233166	8932.217773
5518.894660	1.311606	0.233166	10110.040039
5518.895524	1.279841	0.233166	11215.823242
5518.896625	1.244319	0.233166	12585.818359
5518.897591	1.212100	0.233166	13756.707031
5518.898456	1.183630	0.233166	14780.546875
5518.899526	1.149825	0.233166	16010.860352
5518.900591	1.122638	0.233166	17206.470703
5518.901472	1.099153	0.233166	18174.824219
5518.902408	0.801511	0.233166	18925.039062
5518.903491	0.098269	0.233166	19031.464844
5518.904425	0.089923	0.233166	19115.453125
5518.905290	0.090015	0.233166	19193.316406
5518.906338	0.089989	0.233166	19287.625000
5518.907348	0.089941	0.233166	19378.464844
5518.908241	0.089897	0.233166	19458.744141
5518.909196	0.090007	0.233166	19544.701172
5518.910239	0.090026	0.233166	19638.597656
5518.911155	0.089945	0.233166	19720.988281
5518.912017	0.090048	0.233166	19798.609375
5520.044990	1.055596	0.141852	448.628143
5520.046012	1.525591	0.141852	2007.782104
5520.047059	1.501750	0.141852	3580.114746
5520.047951	1.462185	0.141852	4884.383789
5520.048850	1.423436	0.141852	6164.052734
5520.049944	1.380429	0.141852	7674.241699
5520.050889	1.344254	0.141852	8944.561523
5520.051766	1.312024	0.141852	10095.207031
5520.052813	1.275648	0.141852	11430.810547
5520.053840	1.241309	0.141852	12705.634766
5520.054736	1.210756	0.141852	13790.471680
5520.055686	1.180649	0.141852	14912.088867
5520.056738	1.147943	0.141852	16119.724609
5520.057666	1.123737	0.141852	17162.552734
5520.058528	1.101075	0.141852	18111.679687
5520.059595	0.767281	0.141852	18930.369141
5520.060608	0.097185	0.141852	19028.818359
5520.061480	0.089872	0.141852	19107.187500
5520.062453	0.089956	0.141852	19194.714844
5520.063505	0.089978	0.141852	19289.371094
5520.064406	0.089971	0.141852	19370.435547
5520.065269	0.089934	0.141852	19448.048828
5520.066313	0.090022	0.141852	19542.031250
5520.067319	0.089960	0.141852	19632.531250
5520.068205	0.089952	0.141852	19712.228516
5520.069167	0.090004	0.141852	19798.812500
5520.927686	1.066523	0.235164	463.937683
5520.928553	1.522460	0.235164	1783.910156
5520.929646	1.504896	0.235164	3428.761719
5520.930648	1.461229	0.235164	4892.913086
5520.931545	1.423770	0.235164	6170.034180
5520.932539	1.384102	0.235164	7545.831055
5520.933587	1.344049	0.235164	8954.394531
5520.934479	1.310804	0.235164	10123.631836
5520.935352	1.278981	0.235164	11240.181641
5520.936461	1.242902	0.235164	12618.559570
5520.937422	1.210745	0.235164	13782.084961
5520.938284	1.182751	0.235164	14801.617187
5520.939316	1.150997	0.235164	15989.446289
5520.940350	1.123696	0.235164	17151.347656
5520.941236	1.100541	0.235164	18126.425781
5520.942142	0.853803	0.235164	18899.970703
5520.943219	0.105652	0.235164	19013.757812
5520.944159	0.089890	0.235164	19098.253906
5520.945026	0.089916	0.235164	19176.210937
5520.946042	0.090004	0.235164	19267.654297
5520.947068	0.089949	0.235164	19359.941406
5520.947967	0.089985	0.235164	19440.837891
5520.948898	0.089993	0.235164	19524.621094
5520.949960	0.090037	0.235164	19620.240234
5520.950899	0.089923	0.235164	19704.677734
5520.951763	0.090037	0.235164	19782.468750
5522.083362	1.134474	0.153046	580.850586
5522.084264	1.528392	0.153046	1959.460449
5522.085130	1.508562	0.153046	3265.875000
5522.086215	1.462855	0.153046	4853.072754
5522.087215	1.420704	0.153046	6273.777344
5522.088109	1.384764	0.153046	7511.756836
5522.088979	1.351220	0.153046	8687.318359
5522.089996	1.314756	0.153046	10024.424805
5522.090893	1.281779	0.153046	11174.179687
5522.091804	1.251163	0.153046	12313.989258
5522.092690	1.220629	0.153046	13395.465820
5522.093729	1.187446	0.153046	14629.222656
5522.094626	1.159365	0.153046	15669.172852
5522.095508	1.132972	0.153046	16668.455078
5522.096487	1.110754	0.153046	17755.882812
5522.097441	1.082032	0.153046	18788.142578
5522.098318	0.302966	0.153046	19053.843750
5522.099256	0.090209	0.153046	19138.458984
5522.100274	0.089989	0.153046	19230.068359
5522.101157	0.089945	0.153046	19309.490234
5522.102014	0.090007	0.153046	19386.626953
5522.103042	0.089978	0.153046	19479.125000
5522.103998	0.089949	0.153046	19565.115234
5522.104872	0.090051	0.153046	19643.820312
5522.105776	0.090011	0.153046	19725.189453
5522.106857	0.090059	0.153046	19822.542969
5522.971070	1.051582	0.236284	449.025513
5522.971934	1.522093	0.236284	1764.114258
5522.972994	1.506918	0.236284	3361.447021
5522.973944	1.465690	0.236284	4753.852051
5522.974823	1.428582	0.236284	6009.575195
5522.975754	1.390668	0.236284	7304.286621
5522.976823	1.349967	0.236284	8747.401367
5522.977707	1.316854	0.236284	9911.500000
5522.978566	1.286407	0.236284	11016.524414
5522.979602	1.250742	0.236284	12312.292969
5522.980576	1.218307	0.236284	13498.923828
5522.981449	1.189644	0.236284	14537.482422
5522.982468	1.157787	0.236284	15717.267578
5522.983516	1.128505	0.236284	16899.941406
5522.984408	1.106774	0.236284	17887.183594
5522.985340	1.011577	0.236284	18829.972656
5522.986402	0.151670	0.236284	18991.046875
5522.987345	0.089824	0.236284	19075.751953
5522.988208	0.089934	0.236284	19153.365234
5522.989261	0.090066	0.236284	19248.205078
5522.990271	0.089923	0.236284	19339.027344
5522.991160	0.090026	0.236284	19419.060547
5522.992109	0.090051	0.236284	19504.519531
5522.993148	0.090037	0.236284	19598.068359
5522.994062	0.089905	0.236284	19680.242187
5522.994926	0.090033	0.236284	19758.031250
5524.119583	1.138077	0.152511	584.971802
5524.120523	1.528847	0.152511	2022.087524
5524.121389	1.507859	0.152511	3327.893311
5524.122441	1.462581	0.152511	4866.528320
5524.123475	1.419441	0.152511	6334.230469
5524.124353	1.383464	0.152511	7548.912109
5524.125318	1.346741	0.152511	8848.516602
5524.126386	1.307523	0.152511	10244.951172
5524.127314	1.274901	0.152511	11428.059570
5524.128191	1.244550	0.152511	12519.529297
5524.129262	1.209675	0.152511	13815.091797
5524.130265	1.177207	0.152511	14995.830078
5524.131156	1.150118	0.152511	16020.585937
5524.132130	1.124143	0.152511	17115.501953
5524.133189	1.096718	0.152511	18276.925781
5524.134098	0.784581	0.152511	18990.109375
5524.134958	0.106300	0.152511	19081.527344
5524.136061	0.089883	0.152511	19180.667969
5524.137023	0.089996	0.152511	19267.244141
5524.137904	0.089996	0.152511	19346.531250
5524.138920	0.090088	0.152511	19438.060547
5524.139967	0.089996	0.152511	19532.287109
5524.140848	0.090029	0.152511	19611.603516
5524.141725	0.090026	0.152511	19690.556641
5524.142819	0.090051	0.152511	19789.072266
5524.143770	0.089908	0.152511	19874.574219
5525.010398	1.077894	0.233141	480.740875
5525.011270	1.523672	0.233141	1809.382690
5525.012314	1.506335	0.233141	3381.996826
5525.013351	1.461475	0.233141	4897.545898
5525.014232	1.423967	0.233141	6152.061035
5525.015190	1.385325	0.233141	7479.202148
5525.016258	1.344126	0.233141	8914.728516
5525.017192	1.310017	0.233141	10138.284180
5525.018064	1.279065	0.233141	11253.628906
5525.019107	1.244070	0.233141	12551.193359
5525.020122	1.210023	0.233141	13779.367187
5525.021018	1.181451	0.233141	14837.947266
5525.021986	1.151572	0.233141	15952.668945
5525.023040	1.123356	0.233141	17136.685547
5525.023966	1.099149	0.233141	18154.498047
5525.024834	0.868290	0.233141	18908.173828
5525.025940	0.102924	0.233141	19022.007812
5525.026921	0.089930	0.233141	19110.230469
5525.027815	0.090007	0.233141	19190.697266
5525.028811	0.090033	0.233141	19280.369141
5525.029859	0.089993	0.233141	19374.681641
5525.030749	0.089996	0.233141	19454.779297
5525.031619	0.090004	0.233141	19533.082031
5525.032697	0.090037	0.233141	19630.140625
5525.033659	0.090040	0.233141	19716.759766
5525.034520	0.089905	0.233141	19794.167969
5526.154679	1.059166	0.154251	445.909027
5526.155767	1.527422	0.154251	2107.744141
5526.156760	1.499974	0.154251	3597.218750
5526.157658	1.461335	0.154251	4909.498047
5526.158643	1.420228	0.154251	6308.422852
5526.159713	1.377601	0.154251	7782.456055
5526.160616	1.342555	0.154251	8994.783203
5526.161484	1.309277	0.154251	10131.236328
5526.162613	1.271576	0.154251	11566.845703
5526.163575	1.239346	0.154251	12759.095703
5526.164452	1.210001	0.154251	13820.266602
5526.165486	1.176834	0.154251	15037.112305
5526.166519	1.145116	0.154251	16220.017578
5526.167414	1.121884	0.154251	17224.103516
5526.168345	1.097787	0.154251	18246.142578
5526.169403	0.660575	0.154251	18945.031250
5526.170341	0.094497	0.154251	19033.669922
5526.171201	0.089971	0.154251	19111.044922
5526.172246	0.090051	0.154251	19205.148437
5526.173253	0.089974	0.154251	19295.751953
5526.174130	0.089930	0.154251	19374.621094
5526.174995	0.090044	0.154251	19452.509766
5526.175939	0.090044	0.154251	19537.511719
5526.176904	0.089938	0.154251	19624.300781
5526.177813	0.090037	0.154251	19706.144531
5526.178694	0.090051	0.154251	19785.480469
5527.049733	1.118760	0.238705	558.261108
5527.050614	1.526572	0.238705	1903.171265
5527.051488	1.510752	0.238705	3223.568359
5527.052410	1.470527	0.238705	4579.394531
5527.053407	1.428560	0.238705	6003.668457
5527.054326	1.391005	0.238705	7282.001953
5527.055222	1.356398	0.238705	8497.333984
5527.056240	1.319440	0.238705	9840.523437
5527.057156	1.285950	0.238705	11018.453125
5527.058088	1.254529	0.238705	12187.673828
5527.058952	1.224448	0.238705	13245.596680
5527.059998	1.191438	0.238705	14491.840820
5527.060887	1.163210	0.238705	15525.934570
5527.061750	1.136137	0.238705	16506.419922
5527.062817	1.111846	0.238705	17692.759766
5527.063734	1.085566	0.238705	18688.224609
5527.064619	0.396350	0.238705	19038.994141
5527.065605	0.090864	0.238705	19128.585937
5527.066613	0.090022	0.238705	19219.328125
5527.067498	0.089956	0.238705	19298.939453
5527.068359	0.090026	0.238705	19376.451172
5527.069444	0.090011	0.238705	19474.113281
5527.070374	0.089978	0.238705	19557.792969
5527.071250	0.090055	0.238705	19636.681641
5527.072229	0.090165	0.238705	19724.953125
5527.073239	0.089982	0.238705	19815.833984
5527.074115	0.089989	0.238705	19894.664062
5528.193487	1.066307	0.156724	472.374176
5528.194355	1.523815	0.156724	1795.045288
5528.195323	1.510243	0.156724	3256.960449
5528.196360	1.464836	0.156724	4775.995605
5528.197257	1.427150	0.156724	6056.148926
5528.198128	1.391268	0.156724	7267.943848
5528.199185	1.350835	0.156724	8695.776367
5528.200131	1.315829	0.156724	9940.550781
5528.200999	1.285064	0.156724	11055.986328
5528.202069	1.249138	0.156724	12392.564453
5528.203083	1.215231	0.156724	13624.808594
5528.203978	1.186395	0.156724	14686.632812
5528.204930	1.156531	0.156724	15787.650391
5528.205980	1.127109	0.156724	16971.115234
5528.206903	1.103800	0.156724	17989.921875
5528.207765	1.000250	0.156724	18852.136719
5528.208845	0.143452	0.156724	19007.064453
5528.209840	0.089875	0.156724	19096.490234
5528.210717	0.089949	0.156724	19175.375000
5528.211708	0.090073	0.156724	19264.636719
5528.212764	0.090015	0.156724	19359.691406
5528.213658	0.090000	0.156724	19440.152344
5528.214515	0.090062	0.156724	19517.335937
5528.215573	0.090106	0.156724	19612.667969
5528.216563	0.090022	0.156724	19701.789062
5528.217457	0.090062	0.156724	19782.304687
5529.090501	1.058496	0.233609	453.036346
5529.091470	1.521823	0.233609	1927.682495
5529.092518	1.503036	0.233609	3502.864258
5529.093454	1.462020	0.233609	4871.315430
5529.094319	1.424744	0.233609	6103.718750
5529.095393	1.382421	0.233609	7588.438477
5529.096396	1.343712	0.233609	8936.181641
5529.097272	1.311314	0.233609	10084.892578
5529.098245	1.277402	0.233609	11327.804687
5529.099318	1.241492	0.233609	12659.925781
5529.100223	1.211085	0.233609	13755.958008
5529.101095	1.181927	0.233609	14786.598633
5529.102183	1.149001	0.233609	16036.711914
5529.103178	1.122627	0.233609	17153.726562
5529.104076	1.099790	0.233609	18141.337891
5529.105079	0.784486	0.233609	18928.177734
5529.106134	0.097511	0.233609	19031.052734
5529.107024	0.089938	0.233609	19111.097656
5529.107905	0.090044	0.233609	19190.425781
5529.109006	0.090077	0.233609	19289.599609
5529.109960	0.089952	0.233609	19375.414062
5529.110833	0.090081	0.233609	19454.054687
5529.111873	0.090077	0.233609	19547.734375
5529.112894	0.089963	0.233609	19639.587891
5529.113781	0.089993	0.233609	19719.412109
5529.114704	0.089985	0.233609	19802.468750
5530.231296	1.087229	0.160418	537.091125
5530.232364	1.527832	0.160418	2168.815674
5530.233302	1.500604	0.160418	3576.382324
5530.234165	1.462386	0.160418	4838.421875
5530.235219	1.418987	0.160418	6334.034180
5530.236235	1.378125	0.160418	7734.208984
5530.237115	1.344298	0.160418	8917.191406
5530.238097	1.309318	0.160418	10202.941406
5530.239145	1.272187	0.160418	11536.193359
5530.240068	1.241364	0.160418	12681.971680
5530.240933	1.211320	0.160418	13729.762695
5530.242004	1.177251	0.160418	14990.598633
5530.242998	1.146508	0.160418	16130.227539
5530.243890	1.123671	0.160418	17132.541016
5530.244875	1.097886	0.160418	18213.958984
5530.245939	0.669393	0.160418	18926.193359
5530.246843	0.095237	0.160418	19012.287109
5530.247707	0.090000	0.160418	19090.046875
5530.248822	0.090103	0.160418	19190.511719
5530.249800	0.090007	0.160418	19278.539062
5530.250669	0.090161	0.160418	19356.888672
5530.251731	0.090059	0.160418	19452.531250
5530.252764	0.090026	0.160418	19545.527344
5530.253657	0.090000	0.160418	19625.896484
5530.254574	0.090026	0.160418	19708.449219
5530.255640	0.089989	0.160418	19804.376953
5531.129340	1.105499	0.238886	539.483643
5531.130224	1.526191	0.238886	1888.636963
5531.131145	1.508954	0.238886	3278.383545
5531.132207	1.463137	0.238886	4832.235352
5531.133159	1.423129	0.238886	6187.053711
5531.134084	1.385980	0.238886	7469.085449
5531.134955	1.351868	0.238886	8646.562500
5531.135988	1.314763	0.238886	10004.712891
5531.136869	1.282837	0.238886	11134.892578
5531.137750	1.252819	0.238886	12238.625977
5531.138665	1.222244	0.238886	13356.978516
5531.139653	1.189277	0.238886	14531.984375
5531.140583	1.160493	0.238886	15611.243164
5531.141461	1.134302	0.238886	16607.160156
5531.142460	1.111392	0.238886	17717.439453
5531.143384	1.084515	0.238886	18719.531250
5531.144313	0.321866	0.238886	19018.544922
5531.145179	0.090234	0.238886	19096.687500
5531.146213	0.089978	0.238886	19189.724609
5531.147094	0.090037	0.238886	19269.046875
5531.147949	0.090044	0.238886	19346.035156
5531.149034	0.089982	0.238886	19443.666016
5531.149938	0.090077	0.238886	19525.095703
5531.150812	0.090029	0.238886	19603.781250
5531.151778	0.090033	0.238886	19690.753906
5531.152790	0.090033	0.238886	19781.867187
5531.153682	0.089985	0.238886	19862.134766
5532.268521	1.079722	0.161856	510.708374
5532.269558	1.528839	0.161856	2096.114502
5532.270431	1.504933	0.161856	3409.920898
5532.271312	1.466924	0.161856	4702.280762
5532.272298	1.425853	0.161856	6108.172363
5532.273228	1.387163	0.161856	7398.233887
5532.274156	1.351846	0.161856	8652.747070
5532.275025	1.318711	0.161856	9798.707031
5532.276068	1.283177	0.161856	11137.061523
5532.276961	1.252833	0.161856	12255.841797
5532.277827	1.222698	0.161856	13314.698242
5532.278919	1.188226	0.161856	14612.241211
5532.279843	1.158805	0.161856	15682.976562
5532.280717	1.133123	0.161856	16673.326172
5532.281702	1.110527	0.161856	17767.195312
5532.282723	1.057555	0.161856	18846.958984
5532.283616	0.231061	0.161856	19053.296875
5532.284475	0.089886	0.161856	19130.509766
5532.285524	0.090029	0.161856	19224.951172
5532.286451	0.089985	0.161856	19308.367187
5532.287327	0.089985	0.161856	19387.195312
5532.288279	0.090165	0.161856	19473.031250
5532.289305	0.090004	0.161856	19565.375000
5532.290198	0.090007	0.161856	19645.751953
5532.291139	0.090033	0.161856	19730.472656
5532.292186	0.090011	0.161856	19824.714844
5533.166530	1.064165	0.241210	458.655151
5533.167397	1.522621	0.241210	1778.767334
5533.168414	1.508595	0.241210	3313.008301
5533.169413	1.464723	0.241210	4776.266602
5533.170291	1.427651	0.241210	6029.744141
5533.171285	1.387126	0.241210	7408.547852
5533.172352	1.346448	0.241210	8845.208008
5533.173247	1.313101	0.241210	10020.432617
5533.174112	1.281698	0.241210	11129.101562
5533.175207	1.245696	0.241210	12493.138672
5533.176176	1.213700	0.241210	13669.213867
5533.177049	1.184967	0.241210	14703.690430
5533.178079	1.152931	0.241210	15891.208984
5533.179125	1.125231	0.241210	17068.201172
5533.180014	1.102156	0.241210	18048.017578
5533.180936	0.909774	0.241210	18886.830078
5533.182016	0.111189	0.241210	19006.914062
5533.182962	0.090007	0.241210	19092.060547
5533.183823	0.090084	0.241210	19169.623047
5533.184871	0.090103	0.241210	19264.050781
5533.185879	0.090040	0.241210	19354.810547
5533.186762	0.090055	0.241210	19434.328125
5533.187715	0.090095	0.241210	19520.189453
5533.188763	0.090088	0.241210	19614.601562
5533.189684	0.090040	0.241210	19697.529297
5533.190541	0.089963	0.241210	19774.626953
5534.306745	1.045613	0.158380	438.111725
5534.307728	1.522112	0.158380	1934.347534
5534.308781	1.502417	0.158380	3516.392578
5534.309700	1.462119	0.158380	4860.080078
5534.310569	1.424414	0.158380	6097.895996
5534.311673	1.380948	0.158380	7622.462891
5534.312663	1.343002	0.158380	8952.034180
5534.313558	1.310665	0.158380	10125.080078
5534.314553	1.276278	0.158380	11394.976562
5534.315610	1.240763	0.158380	12706.462891
5534.316507	1.210624	0.158380	13792.392578
5534.317397	1.180756	0.158380	14843.265625
5534.318481	1.148112	0.158380	16087.818359
5534.319440	1.123048	0.158380	17164.822266
5534.320306	1.100343	0.158380	18117.718750
5534.321351	0.771603	0.158380	18924.042969
5534.322386	0.097467	0.158380	19024.921875
5534.323264	0.089879	0.158380	19103.835937
5534.324211	0.090022	0.158380	19189.085937
5534.325262	0.089956	0.158380	19283.628906
5534.326196	0.090037	0.158380	19367.722656
5534.327057	0.090051	0.158380	19445.255859
5534.328086	0.090070	0.158380	19537.937500
5534.329110	0.089923	0.158380	19630.019531
5534.330003	0.090015	0.158380	19710.402344
5534.330960	0.090011	0.158380	19796.542969
5535.206343	1.072244	0.242576	467.498260
5535.207207	1.522115	0.242576	1782.606079
5535.208316	1.504120	0.242576	3450.675049
5535.209269	1.462328	0.242576	4844.273437
5535.210150	1.425692	0.242576	6100.308105
5535.211258	1.381186	0.242576	7630.662598
5535.212293	1.341544	0.242576	9019.161133
5535.213174	1.309025	0.242576	10172.412109
5535.214115	1.276381	0.242576	11373.486328
5535.215184	1.240360	0.242576	12699.431641
5535.216123	1.209060	0.242576	13834.739258
5535.216989	1.180693	0.242576	14857.219727
5535.218059	1.148049	0.242576	16085.632812
5535.219082	1.121755	0.242576	17233.189453
5535.219961	1.098259	0.242576	18198.558594
5535.220938	0.756321	0.242576	18937.484375
5535.221993	0.096559	0.242576	19039.353516
5535.222894	0.090059	0.242576	19120.496094
5535.223763	0.090095	0.242576	19198.789062
5535.224832	0.090165	0.242576	19295.175781
5535.225822	0.090040	0.242576	19384.316406
5535.226711	0.090062	0.242576	19464.380859
5535.227689	0.090165	0.242576	19552.562500
5535.228744	0.090070	0.242576	19647.585937
5535.229657	0.090037	0.242576	19729.789062
5535.230522	0.090059	0.242576	19807.689453
5536.344085	1.101442	0.165498	567.242432
5536.345159	1.527693	0.165498	2207.984375
5536.346098	1.498806	0.165498	3615.363281
5536.346965	1.460343	0.165498	4881.480469
5536.348046	1.416145	0.165498	6412.333008
5536.349044	1.375994	0.165498	7785.574707
5536.349939	1.341713	0.165498	8986.407227
5536.350935	1.306058	0.165498	10287.241211
5536.351978	1.269913	0.165498	11611.760742
5536.352877	1.239331	0.165498	12725.919922
5536.353740	1.209236	0.165498	13769.490234
5536.354840	1.175295	0.165498	15062.315430
5536.355796	1.145654	0.165498	16157.560547
5536.356673	1.122854	0.165498	17142.302734
5536.357709	1.096549	0.165498	18278.328125
5536.358769	0.619592	0.165498	18935.095703
5536.359651	0.094197	0.165498	19018.177734
5536.360534	0.089941	0.165498	19097.595703
5536.361613	0.090044	0.165498	19194.753906
5536.362573	0.089963	0.165498	19281.119141
5536.363482	0.089919	0.165498	19362.855469
5536.364360	0.090040	0.165498	19441.910156
5536.365375	0.090040	0.165498	19533.300781
5536.366282	0.089927	0.165498	19614.865234
5536.367154	0.089978	0.165498	19693.326172
5536.368023	0.090055	0.165498	19771.583984
5537.244090	1.052692	0.241440	446.341217
5537.245088	1.523372	0.241440	1966.666016
5537.246031	1.505552	0.241440	3386.401367
5537.246910	1.467294	0.241440	4676.152344
5537.247894	1.426641	0.241440	6079.966797
5537.248900	1.385328	0.241440	7473.606934
5537.249786	1.351088	0.241440	8670.670898
5537.250650	1.318180	0.241440	9809.578125
5537.251725	1.281464	0.241440	11187.151367
5537.252645	1.250149	0.241440	12337.288086
5537.253517	1.220837	0.241440	13401.858398
5537.254467	1.189797	0.241440	14532.166016
5537.255503	1.157098	0.241440	15730.919922
5537.256403	1.131127	0.241440	16748.933594
5537.257272	1.110373	0.241440	17713.847656
5537.258337	1.033854	0.241440	18814.902344
5537.259277	0.199244	0.241440	19002.191406
5537.260142	0.089839	0.241440	19079.902344
5537.261222	0.090051	0.241440	19177.158203
5537.262216	0.090018	0.241440	19266.636719
5537.263105	0.089952	0.241440	19346.603516
5537.264064	0.089971	0.241440	19432.884766
5537.265126	0.090029	0.241440	19528.496094
5537.266049	0.089982	0.241440	19611.548828
5537.266910	0.089978	0.241440	19689.019531
5537.268009	0.090088	0.241440	19788.025391
5538.381862	1.141692	0.161518	593.679749
5538.382751	1.527568	0.161518	1951.687988
5538.383629	1.509001	0.161518	3276.591309
5538.384512	1.469172	0.161518	4573.870605
5538.385563	1.426274	0.161518	6072.884766
5538.386464	1.389492	0.161518	7324.817383
5538.387329	1.354556	0.161518	8496.507812
5538.388431	1.315778	0.161518	9946.495117
5538.389331	1.283551	0.161518	11101.691406
5538.390203	1.253972	0.161518	12195.155273
5538.391219	1.220728	0.161518	13435.414062
5538.392213	1.187801	0.161518	14616.088867
5538.393099	1.159688	0.161518	15643.572266
5538.393964	1.133445	0.161518	16624.001953
5538.395062	1.107686	0.161518	17840.240234
5538.395975	1.070248	0.161518	18817.376953
5538.396850	0.259753	0.161518	19044.662109
5538.397942	0.089996	0.161518	19142.937500
5538.398917	0.090007	0.161518	19230.695312
5538.399800	0.090044	0.161518	19310.205078
5538.400789	0.090095	0.161518	19399.308594
5538.401841	0.090040	0.161518	19494.031250
5538.402738	0.090070	0.161518	19574.824219
5538.403602	0.090059	0.161518	19652.634766
5538.404697	0.090095	0.161518	19751.289062
5538.405663	0.089938	0.161518	19838.167969
5539.281909	1.113325	0.241387	535.509399
5539.282787	1.525693	0.241387	1875.068237
5539.283726	1.508082	0.241387	3291.157471
5539.284798	1.461870	0.241387	4858.282227
5539.285732	1.422821	0.241387	6187.197266
5539.286603	1.386885	0.241387	7395.173828
5539.287662	1.346495	0.241387	8821.112305
5539.288681	1.309332	0.241387	10155.322266
5539.289577	1.278021	0.241387	11300.429687
5539.290561	1.245341	0.241387	12525.844727
5539.291622	1.209800	0.241387	13809.442383
5539.292548	1.179672	0.241387	14901.818359
5539.293414	1.151708	0.241387	15899.197266
5539.294505	1.123487	0.241387	17124.921875
5539.295507	1.097520	0.241387	18224.636719
5539.296399	0.840011	0.241387	18973.925781
5539.297405	0.110647	0.241387	19085.236328
5539.298448	0.089960	0.241387	19179.064453
5539.299327	0.090048	0.241387	19258.216797
5539.300192	0.090073	0.241387	19336.130859
5539.301290	0.090055	0.241387	19435.011719
5539.302247	0.089993	0.241387	19521.134766
5539.303106	0.090004	0.241387	19598.447266
5539.304112	0.090103	0.241387	19689.089844
5539.305166	0.090015	0.241387	19783.964844
5539.306034	0.090000	0.241387	19862.083984
5540.417587	1.140549	0.167448	621.599365
5540.418587	1.528601	0.167448	2150.200439
5540.419480	1.502556	0.167448	3491.983154
5540.420456	1.460215	0.167448	4917.152832
5540.421521	1.415779	0.167448	6424.957031
5540.422435	1.378872	0.167448	7685.246094
5540.423307	1.344327	0.167448	8857.500000
5540.424407	1.305333	0.167448	10293.366211
5540.425377	1.271404	0.167448	11526.627930
5540.426262	1.242107	0.167448	12625.892578
5540.427262	1.208734	0.167448	13834.626953
5540.428337	1.174838	0.167448	15097.577148
5540.429231	1.146676	0.167448	16122.705078
5540.430119	1.122715	0.167448	17119.675781
5540.431223	1.094630	0.167448	18328.148437
5540.432204	0.650079	0.167448	18965.876953
5540.433065	0.096119	0.167448	19048.636719
5540.434100	0.090062	0.167448	19141.851562
5540.435129	0.089978	0.167448	19234.439453
5540.436009	0.089967	0.167448	19313.611328
5540.436937	0.090110	0.167448	19397.232422
5540.437989	0.090011	0.167448	19491.923828
5540.438921	0.089949	0.167448	19575.755859
5540.439780	0.089949	0.167448	19653.021484
5540.440820	0.090092	0.167448	19746.716797
5540.441830	0.089982	0.167448	19837.597656
5541.321732	1.125396	0.241774	549.192993
5541.322615	1.525723	0.241774	1896.406128
5541.323585	1.506855	0.241774	3358.055908
5541.324643	1.460698	0.241774	4903.474609
5541.325578	1.421440	0.241774	6232.521484
5541.326438	1.385684	0.241774	7424.209473
5541.327483	1.345807	0.241774	8830.578125
5541.328496	1.308999	0.241774	10156.593750
5541.329383	1.278051	0.241774	11290.224609
5541.330358	1.245520	0.241774	12504.606445
5541.331411	1.210060	0.241774	13778.798828
5541.332342	1.179818	0.241774	14877.208984
5541.333214	1.152107	0.241774	15881.846680
5541.334299	1.123795	0.241774	17101.164062
5541.335290	1.098040	0.241774	18189.320312
5541.336183	0.869198	0.241774	18965.513672
5541.337176	0.114261	0.241774	19078.974609
5541.338230	0.089934	0.241774	19173.765625
5541.339114	0.089989	0.241774	19253.316406
5541.339988	0.090048	0.241774	19332.017578
5541.341084	0.090125	0.241774	19430.794922
5541.342042	0.090040	0.241774	19517.052734
5541.342906	0.090007	0.241774	19594.818359
5541.343939	0.090172	0.241774	19687.966797
5541.344964	0.090004	0.241774	19780.220703
5541.345841	0.090040	0.241774	19859.185547
5542.453180	1.070153	0.171657	454.814880
5542.454261	1.526726	0.171657	2105.205811
5542.455233	1.501000	0.171657	3564.177490
5542.456097	1.463178	0.171657	4828.362793
5542.457183	1.418163	0.171657	6368.487793
5542.458222	1.376558	0.171657	7798.730957
5542.459107	1.342460	0.171657	8986.807617
5542.460050	1.308032	0.171657	10220.282227
5542.461121	1.271023	0.171657	11581.547852
5542.462066	1.239185	0.171657	12752.577148
5542.462929	1.209899	0.171657	13796.719727
5542.463975	1.176152	0.171657	15026.974609
5542.464997	1.144805	0.171657	16196.964844
5542.465890	1.122367	0.171657	17199.238281
5542.466860	1.096710	0.171657	18263.046875
5542.467941	0.618882	0.171657	18932.058594
5542.468853	0.093494	0.171657	19017.324219
5542.469722	0.089963	0.171657	19095.501953
5542.470801	0.090044	0.171657	19192.660156
5542.471791	0.090018	0.171657	19281.777344
5542.472683	0.089963	0.171657	19362.025391
5542.473669	0.090055	0.171657	19450.820312
5542.474723	0.090044	0.171657	19545.726562
5542.475631	0.089993	0.171657	19627.439453
5542.476493	0.090011	0.171657	19705.029297
5542.477589	0.090088	0.171657	19803.765625
5543.362007	1.075470	0.233673	472.131317
5543.362881	1.523035	0.233673	1803.263672
5543.363741	1.512378	0.233673	3103.908691
5543.364767	1.468711	0.233673	4610.806152
5543.365673	1.430493	0.233673	5906.833008
5543.366553	1.394506	0.233673	7133.998047
5543.367467	1.358643	0.233673	8375.796875
5543.368465	1.321864	0.233673	9695.017578
5543.369382	1.289268	0.233673	10877.275391
5543.370279	1.258546	0.233673	12006.191406
5543.371285	1.225836	0.233673	13239.382812
5543.372196	1.195049	0.233673	14328.072266
5543.373069	1.167484	0.233673	15347.286133
5543.374090	1.136693	0.233673	16507.849609
5543.375088	1.113241	0.233673	17618.863281
5543.375966	1.088013	0.233673	18574.138672
5543.376837	0.505441	0.233673	19014.376953
5543.377924	0.090410	0.233673	19112.652344
5543.378832	0.090022	0.233673	19194.392578
5543.379710	0.089974	0.233673	19273.390625
5543.380690	0.090084	0.233673	19361.673828
5543.381688	0.089912	0.233673	19451.406250
5543.382575	0.090011	0.233673	19531.246094
5543.383434	0.089949	0.233673	19608.511719
5543.384523	0.090000	0.233673	19706.521484
5543.385432	0.089967	0.233673	19788.300781
5543.386296	0.090000	0.233673	19866.060547
5544.487957	1.132328	0.172813	570.693298
5544.488841	1.526715	0.172813	1920.309570
5544.489738	1.507734	0.172813	3272.747314
5544.490827	1.461764	0.172813	4864.608398
5544.491781	1.421825	0.172813	6221.029297
5544.492645	1.386442	0.172813	7418.915039
5544.493676	1.346979	0.172813	8807.650391
5544.494709	1.309589	0.172813	10160.455078
5544.495591	1.278387	0.172813	11287.993164
5544.496536	1.246718	0.172813	12466.141602
5544.497609	1.210898	0.172813	13765.435547
5544.498530	1.180774	0.172813	14852.928711
5544.499439	1.152462	0.172813	15900.516602
5544.500326	1.127659	0.172813	16900.750000
5544.501359	1.102291	0.172813	18039.416016
5544.502256	0.977794	0.172813	18916.498047
5544.503137	0.158024	0.172813	19055.716797
5544.504087	0.089923	0.172813	19141.144531
5544.505070	0.089890	0.172813	19229.505859
5544.505988	0.089982	0.172813	19312.109375
5544.506863	0.090029	0.172813	19390.884766
5544.507864	0.089916	0.172813	19480.890625
5544.508753	0.089974	0.172813	19560.876953
5544.509621	0.090128	0.172813	19639.107422
5544.510618	0.090066	0.172813	19728.902344
5544.511607	0.090022	0.172813	19817.933594
5545.402298	1.051000	0.232578	444.572906
5545.403279	1.521683	0.232578	1937.344238
5545.404348	1.500850	0.232578	3541.752441
5545.405263	1.460903	0.232578	4878.479004
5545.406127	1.423414	0.232578	6108.309082
5545.407232	1.379974	0.232578	7633.180664
5545.408229	1.341610	0.232578	8970.765625
5545.409129	1.309237	0.232578	10149.079102
5545.410130	1.274421	0.232578	11424.775391
5545.411181	1.239686	0.232578	12727.685547
5545.412073	1.209225	0.232578	13806.314453
5545.412939	1.179998	0.232578	14828.192383
5545.414023	1.147749	0.232578	16072.352539
5545.414977	1.123151	0.232578	17143.837891
5545.415847	1.100193	0.232578	18101.005859
5545.416895	0.778011	0.232578	18916.361328
5545.417924	0.097961	0.232578	19017.164062
5545.418799	0.089908	0.232578	19095.833984
5545.419717	0.090077	0.232578	19178.525391
5545.420781	0.090048	0.232578	19274.335937
5545.421725	0.089989	0.232578	19359.285156
5545.422581	0.089974	0.232578	19436.302734
5545.423589	0.090011	0.232578	19527.033203
5545.424618	0.089974	0.232578	19619.617187
5545.425505	0.089934	0.232578	19699.388672
5545.426435	0.090011	0.232578	19783.099609
5546.522553	1.049700	0.174767	442.973267
5546.523499	1.521215	0.174767	1882.042236
5546.524528	1.504314	0.174767	3429.981445
5546.525422	1.465356	0.174767	4740.010254
5546.526286	1.428365	0.174767	5974.118164
5546.527346	1.386163	0.174767	7443.451172
5546.528296	1.349348	0.174767	8725.332031
5546.529164	1.316858	0.174767	9868.365234
5546.530223	1.280292	0.174767	11224.194336
5546.531245	1.245520	0.174767	12497.115234
5546.532125	1.216110	0.174767	13567.291992
5546.533076	1.185458	0.174767	14694.662109
5546.534136	1.152231	0.174767	15916.027344
5546.535051	1.126787	0.174767	16947.037109
5546.535922	1.104763	0.174767	17909.285156
5546.536988	0.901099	0.174767	18869.855469
5546.537993	0.114368	0.174767	18984.794922
5546.538891	0.089919	0.174767	19065.542969
5546.539872	0.090103	0.174767	19153.933594
5546.540913	0.089963	0.174767	19247.585937
5546.541821	0.089985	0.174767	19329.292969
5546.542682	0.090062	0.174767	19406.835937
5546.543770	0.090084	0.174767	19504.847656
5546.544754	0.089963	0.174767	19593.371094
5546.545644	0.089938	0.174767	19673.416016
5546.546636	0.090077	0.174767	19762.771484
5547.442111	1.051454	0.230370	446.867920
5547.443069	1.521416	0.230370	1904.384521
5547.444137	1.502047	0.230370	3508.570801
5547.445043	1.461951	0.230370	4833.098145
5547.445914	1.424356	0.230370	6073.711914
5547.447001	1.381703	0.230370	7575.623047
5547.447994	1.343075	0.230370	8909.296875
5547.448898	1.310533	0.230370	10094.019531
5547.449890	1.275963	0.230370	11359.775391
5547.450952	1.241041	0.230370	12677.760742
5547.451849	1.210386	0.230370	13763.476562
5547.452726	1.182642	0.230370	14800.653320
5547.453610	1.153751	0.230370	15820.569336
5547.454666	1.125754	0.230370	17009.365234
5547.455555	1.103372	0.230370	17990.261719
5547.456429	1.029335	0.230370	18889.900391
5547.457419	0.178389	0.230370	19066.505859
5547.458339	0.089897	0.230370	19149.210937
5547.459259	0.089930	0.230370	19231.947266
5547.460117	0.090033	0.230370	19309.195312
5547.461132	0.089971	0.230370	19400.515625
5547.462029	0.090022	0.230370	19481.265625
5547.462909	0.090062	0.230370	19560.519531
5547.463856	0.090048	0.230370	19645.794922
5547.464822	0.089996	0.230370	19732.730469
5547.465702	0.090106	0.230370	19812.023437
5548.555703	1.050286	0.173478	442.170288
5548.556768	1.525745	0.173478	2067.088379
5548.557782	1.500026	0.173478	3588.114258
5548.558661	1.461456	0.173478	4872.734375
5548.559638	1.421078	0.173478	6261.127441
5548.560697	1.378520	0.173478	7720.980469
5548.561599	1.343177	0.173478	8932.526367
5548.562476	1.310218	0.173478	10081.587891
5548.563572	1.273041	0.173478	11476.840820
5548.564573	1.238998	0.173478	12717.078125
5548.565472	1.209119	0.173478	13804.076172
5548.566458	1.177980	0.173478	14965.564453
5548.567513	1.145731	0.173478	16174.310547
5548.568412	1.122440	0.173478	17183.384766
5548.569291	1.098182	0.173478	18148.687500
5548.570403	0.679446	0.173478	18904.230469
5548.571357	0.094336	0.173478	18994.226562
5548.572221	0.089861	0.173478	19071.867187
5548.573266	0.090048	0.173478	19165.966797
5548.574296	0.090022	0.173478	19258.689453
5548.575193	0.089974	0.173478	19339.396484
5548.576118	0.090062	0.173478	19422.703125
5548.577175	0.090033	0.173478	19517.867187
5548.578109	0.090059	0.173478	19601.982422
5548.578967	0.089963	0.173478	19679.171875
5548.580019	0.090026	0.173478	19773.878906
5549.483081	1.179672	0.225713	665.334778
5549.484124	1.528023	0.225713	2259.062256
5549.485008	1.499908	0.225713	3584.981445
5549.485910	1.459874	0.225713	4901.788086
5549.486998	1.415651	0.225713	6442.016113
5549.487945	1.377539	0.225713	7746.545410
5549.488810	1.344210	0.225713	8909.287109
5549.489848	1.306912	0.225713	10265.861328
5549.490879	1.270957	0.225713	11576.217773
5549.491760	1.240924	0.225713	12669.471680
5549.492693	1.209723	0.225713	13798.142578
5549.493758	1.175826	0.225713	15050.397461
5549.494686	1.147024	0.225713	16114.835937
5549.495554	1.123964	0.225713	17090.435547
5549.496595	1.097263	0.225713	18232.687500
5549.497618	0.706337	0.225713	18955.269531
5549.498508	0.097852	0.225713	19042.357422
5549.499469	0.090070	0.225713	19128.914062
5549.500526	0.090044	0.225713	19224.089844
5549.501455	0.089989	0.225713	19307.689453
5549.502320	0.089993	0.225713	19385.533203
5549.503394	0.090099	0.225713	19482.298828
5549.504390	0.089971	0.225713	19571.910156
5549.505285	0.089971	0.225713	19652.433594
5549.506262	0.090051	0.225713	19740.414062
5549.507306	0.090037	0.225713	19834.412109
5550.588857	1.053658	0.173466	445.697479
5550.589728	1.522119	0.173466	1771.463257
5550.590698	1.510327	0.173466	3236.480713
5550.591608	1.470040	0.173466	4574.217285
5550.592486	1.433020	0.173466	5832.408691
5550.593415	1.395231	0.173466	7128.578125
5550.594426	1.355933	0.173466	8499.425781
5550.595348	1.321695	0.173466	9718.029297
5550.596221	1.290652	0.173466	10844.768555
5550.597273	1.255313	0.173466	12165.357422
5550.598157	1.225294	0.173466	13248.517578
5550.599033	1.195668	0.173466	14295.922852
5550.599898	1.167418	0.173466	15305.739258
5550.600949	1.136444	0.173466	16500.142578
5550.601849	1.115929	0.173466	17504.478516
5550.602715	1.090532	0.173466	18448.878906
5550.603820	0.424709	0.173466	18918.183594
5550.604741	0.090348	0.173466	19001.394531
5550.605613	0.089890	0.173466	19079.779297
5550.606605	0.090095	0.173466	19169.154297
5550.607590	0.090011	0.173466	19257.814453
5550.608468	0.090000	0.173466	19336.833984
5550.609324	0.089949	0.173466	19413.830078
5550.610388	0.090044	0.173466	19509.636719
5550.611301	0.089908	0.173466	19591.722656
5550.612158	0.090044	0.173466	19668.890625
5550.613196	0.090132	0.173466	19762.447266
5551.523844	1.113871	0.224360	555.821472
5551.524735	1.526510	0.224360	1915.941895
5551.525598	1.507910	0.224360	3217.268311
5551.526700	1.462119	0.224360	4828.523437
5551.527674	1.421426	0.224360	6212.992187
5551.528540	1.386390	0.224360	7413.606445
5551.529586	1.346030	0.224360	8821.553711
5551.530645	1.307835	0.224360	10206.550781
5551.531525	1.276553	0.224360	11329.916992
5551.532454	1.245476	0.224360	12486.964844
5551.533529	1.209642	0.224360	13787.330078
5551.534466	1.179342	0.224360	14892.373047
5551.535331	1.152451	0.224360	15889.243164
5551.536391	1.124506	0.224360	17081.218750
5551.537409	1.098054	0.224360	18199.037109
5551.538281	0.873069	0.224360	18960.353516
5551.539248	0.120762	0.224360	19077.130859
5551.540301	0.089908	0.224360	19171.804687
5551.541222	0.089974	0.224360	19254.671875
5551.542095	0.089963	0.224360	19333.208984
5551.543158	0.090011	0.224360	19428.890625
5551.544148	0.089993	0.224360	19517.982422
5551.545039	0.089960	0.224360	19598.136719
5551.545911	0.089989	0.224360	19676.607422
5551.546886	0.090018	0.224360	19764.375000
5551.547838	0.090018	0.224360	19850.072266
5552.624598	1.077459	0.170211	482.701416
5552.625462	1.522214	0.170211	1797.894531
5552.626539	1.503915	0.170211	3417.610840
5552.627504	1.461984	0.170211	4828.424805
5552.628387	1.425264	0.170211	6086.932617
5552.629380	1.384995	0.170211	7462.232910
5552.630443	1.344708	0.170211	8891.658203
5552.631338	1.311526	0.170211	10065.473633
5552.632224	1.279380	0.170211	11199.003906
5552.633319	1.243356	0.170211	12560.478516
5552.634280	1.211290	0.170211	13724.528320
5552.635148	1.183151	0.170211	14751.502930
5552.636194	1.151122	0.170211	15955.576172
5552.637225	1.123660	0.170211	17114.068359
5552.638114	1.100343	0.170211	18092.273437
5552.639059	0.866949	0.170211	18911.541016
5552.640117	0.106238	0.170211	19023.941406
5552.641053	0.089952	0.170211	19108.136719
5552.641915	0.090022	0.170211	19185.736328
5552.642974	0.090033	0.170211	19281.082031
5552.643980	0.089974	0.170211	19371.595703
5552.644860	0.089930	0.170211	19450.734375
5552.645837	0.090015	0.170211	19538.677734
5552.646878	0.090018	0.170211	19632.386719
5552.647792	0.090029	0.170211	19714.673828
5552.648648	0.090066	0.170211	19791.769531
5553.562040	1.047469	0.222402	440.984650
5553.563057	1.523342	0.222402	1990.223633
5553.564061	1.501556	0.222402	3497.786133
5553.564956	1.462943	0.222402	4807.120117
5553.565967	1.421027	0.222402	6243.777832
5553.567019	1.379103	0.222402	7694.593750
5553.567903	1.344404	0.222402	8883.046875
5553.568788	1.311028	0.222402	10043.306641
5553.569891	1.273711	0.222402	11448.209961
5553.570840	1.241572	0.222402	12626.461914
5553.571702	1.213022	0.222402	13672.086914
5553.572737	1.179844	0.222402	14893.224609
5553.573780	1.147654	0.222402	16090.227539
5553.574656	1.124414	0.222402	17075.214844
5553.575589	1.100361	0.222402	18101.851562
5553.576663	0.742094	0.222402	18898.859375
5553.577606	0.098643	0.222402	18991.878906
5553.578473	0.089967	0.222402	19069.880859
5553.579506	0.090092	0.222402	19162.945312
5553.580520	0.089982	0.222402	19254.187500
5553.581412	0.090000	0.222402	19334.466797
5553.582358	0.090084	0.222402	19419.685547
5553.583408	0.090084	0.222402	19514.273437
5553.584343	0.089963	0.222402	19598.388672
5553.585207	0.090059	0.222402	19676.199219
5553.586284	0.090081	0.222402	19773.216797
5554.661325	1.075291	0.168447	467.751404
5554.662298	1.522148	0.168447	1948.801758
5554.663365	1.500571	0.168447	3549.911377
5554.664286	1.460358	0.168447	4894.900879
5554.665151	1.423030	0.168447	6125.821777
5554.666231	1.380593	0.168447	7616.862305
5554.667233	1.342079	0.168447	8961.625000
5554.668110	1.310156	0.168447	10110.631836
5554.669107	1.275824	0.168447	11382.627930
5554.670169	1.240492	0.168447	12700.030273
5554.671066	1.209727	0.168447	13785.155273
5554.671929	1.180587	0.168447	14804.001953
5554.673010	1.148152	0.168447	16045.154297
5554.673991	1.122854	0.168447	17146.673828
5554.674861	1.100299	0.168447	18103.933594
5554.675921	0.750926	0.168447	18899.916016
5554.676963	0.095834	0.168447	18999.775391
5554.677854	0.089864	0.168447	19079.843750
5554.678730	0.089963	0.168447	19158.652344
5554.679650	0.089978	0.168447	19241.431641
5554.680639	0.090000	0.168447	19330.441406
5554.681572	0.089949	0.168447	19414.363281
5554.682458	0.089982	0.168447	19494.087891
5554.683465	0.089996	0.168447	19584.714844
5554.684371	0.089956	0.168447	19666.214844
5554.685295	0.089993	0.168447	19749.367187
5555.600837	1.061180	0.220577	456.307556
5555.601705	1.521354	0.220577	1776.842529
5555.602782	1.504149	0.220577	3396.811035
5555.603787	1.460449	0.220577	4864.562500
5555.604685	1.423074	0.220577	6142.482422
5555.605669	1.383735	0.220577	7504.078125
5555.606737	1.342881	0.220577	8938.275391
5555.607649	1.309241	0.220577	10132.302734
5555.608519	1.277329	0.220577	11243.579102
5555.609633	1.241085	0.220577	12626.148437
5555.610607	1.208690	0.220577	13803.413086
5555.611487	1.180338	0.220577	14842.110352
5555.612530	1.148218	0.220577	16039.701172
5555.613571	1.121514	0.220577	17207.197266
5555.614457	1.097875	0.220577	18179.914062
5555.615391	0.795945	0.220577	18923.326172
5555.616454	0.099261	0.220577	19028.841797
5555.617386	0.089854	0.220577	19112.585937
5555.618246	0.089912	0.220577	19189.910156
5555.619300	0.090029	0.220577	19284.800781
5555.620327	0.089974	0.220577	19377.205078
5555.621204	0.089978	0.220577	19456.115234
5555.622153	0.090004	0.220577	19541.529297
5555.623218	0.089960	0.220577	19637.335937
5555.624122	0.090004	0.220577	19718.699219
5555.624992	0.089967	0.220577	19796.970703
5556.695478	1.064062	0.167633	446.906250
5556.696587	1.526752	0.167633	2140.073975
5556.697490	1.502249	0.167633	3496.604492
5556.698363	1.464382	0.167633	4775.010254
5556.699382	1.422103	0.167633	6224.133301
5556.700395	1.380894	0.167633	7622.978516
5556.701276	1.346759	0.167633	8809.473633
5556.702142	1.313639	0.167633	9947.084961
5556.703241	1.276589	0.167633	11350.056641
5556.704158	1.245586	0.167633	12492.258789
5556.705022	1.215641	0.167633	13542.572266
5556.706125	1.181019	0.167633	14845.236328
5556.707100	1.150785	0.167633	15967.251953
5556.707988	1.126608	0.167633	16967.679687
5556.708987	1.101537	0.167633	18068.115234
5556.710042	0.833862	0.167633	18947.839844
5556.710935	0.109153	0.167633	19045.312500
5556.711794	0.089938	0.167633	19122.568359
5556.712900	0.090018	0.167633	19222.128906
5556.713857	0.089945	0.167633	19308.207031
5556.714721	0.090026	0.167633	19385.988281
5556.715762	0.090015	0.167633	19479.693359
5556.716792	0.089919	0.167633	19572.310547
5556.717678	0.089989	0.167633	19652.041016
5556.718606	0.089949	0.167633	19735.513672
5556.719672	0.089993	0.167633	19831.445312
5557.637057	1.058130	0.219296	454.995819
5557.637930	1.522126	0.219296	1783.812256
5557.638952	1.506702	0.219296	3323.661133
5557.640012	1.461471	0.219296	4872.820312
5557.640895	1.423755	0.219296	6129.996094
5557.641818	1.386504	0.219296	7409.739258
5557.642878	1.345803	0.219296	8836.291016
5557.643827	1.311174	0.219296	10080.595703
5557.644691	1.280189	0.219296	11186.678711
5557.645743	1.245286	0.219296	12496.718750
5557.646779	1.210752	0.219296	13751.057617
5557.647657	1.181957	0.219296	14788.815430
5557.648539	1.154469	0.219296	15807.056641
5557.649510	1.128190	0.219296	16902.529297
5557.650472	1.103683	0.219296	17964.271484
5557.651388	1.011555	0.219296	18890.855469
5557.652273	0.178575	0.219296	19048.894531
5557.653323	0.089879	0.219296	19143.267578
5557.654224	0.089941	0.219296	19224.304687
5557.655097	0.090022	0.219296	19302.894531
5557.655999	0.090004	0.219296	19384.078125
5557.657010	0.089982	0.219296	19475.048828
5557.657899	0.089974	0.219296	19555.035156
5557.658755	0.089978	0.219296	19632.056641
5557.659843	0.089974	0.219296	19729.949219
5557.660728	0.089956	0.219296	19809.560547
5558.731704	1.050590	0.170650	441.247681
5558.732738	1.525056	0.170650	2018.155762
5558.733699	1.502882	0.170650	3462.425293
5558.734577	1.464679	0.170650	4748.413086
5558.735505	1.425689	0.170650	6071.452148
5558.736573	1.382981	0.170650	7548.475586
5558.737466	1.348194	0.170650	8752.413086
5558.738393	1.314353	0.170650	9970.818359
5558.739443	1.277366	0.170650	11312.052734
5558.740386	1.245916	0.170650	12486.951172
5558.741251	1.216461	0.170650	13539.190430
5558.742308	1.182557	0.170650	14789.153320
5558.743330	1.150690	0.170650	15965.158203
5558.744220	1.126311	0.170650	16967.574219
5558.745185	1.102822	0.170650	18031.796875
5558.746246	0.832324	0.170650	18914.892578
5558.747167	0.111075	0.170650	19017.193359
5558.748023	0.089854	0.170650	19094.107422
5558.749074	0.090062	0.170650	19188.763672
5558.750083	0.089967	0.170650	19279.541016
5558.750972	0.089967	0.170650	19359.521484
5558.751946	0.090004	0.170650	19447.185547
5558.753000	0.089945	0.170650	19541.988281
5558.753916	0.089941	0.170650	19624.375000
5558.754781	0.089989	0.170650	19702.214844
5558.755858	0.089989	0.170650	19799.132812
5559.673797	1.063535	0.217004	460.510681
5559.674664	1.521753	0.217004	1779.870605
5559.675751	1.503984	0.217004	3414.701660
5559.676754	1.460211	0.217004	4879.293457
5559.677650	1.422971	0.217004	6154.275391
5559.678651	1.382824	0.217004	7538.481934
5559.679701	1.342870	0.217004	8948.495117
5559.680611	1.309058	0.217004	10139.737305
5559.681491	1.277201	0.217004	11263.673828
5559.682586	1.241517	0.217004	12623.134766
5559.683553	1.209496	0.217004	13792.716797
5559.684479	1.179906	0.217004	14885.309570
5559.685348	1.152455	0.217004	15886.792969
5559.686384	1.125234	0.217004	17052.535156
5559.687267	1.102002	0.217004	18025.603516
5559.688157	0.987660	0.217004	18904.621094
5559.689031	0.165033	0.217004	19048.859375
5559.690089	0.089897	0.217004	19143.970703
5559.690978	0.089971	0.217004	19223.955078
5559.691853	0.090015	0.217004	19302.718750
5559.692838	0.090055	0.217004	19391.421875
5559.693779	0.090066	0.217004	19476.173828
5559.694701	0.090007	0.217004	19559.160156
5559.695563	0.089989	0.217004	19636.730469
5559.696600	0.089901	0.217004	19729.957031
5559.697488	0.089996	0.217004	19809.873047
5560.767926	1.059628	0.168024	446.103241
5560.769020	1.526569	0.168024	2116.169189
5560.770019	1.498473	0.168024	3613.143555
5560.770922	1.459369	0.168024	4930.953613
5560.771926	1.418156	0.168024	6354.781738
5560.772963	1.376961	0.168024	7782.689941
5560.773862	1.341863	0.168024	8989.024414
5560.774744	1.308541	0.168024	10143.158203
5560.775845	1.271202	0.168024	11542.751953
5560.776806	1.239309	0.168024	12733.728516
5560.777669	1.210067	0.168024	13778.016602
5560.778721	1.176676	0.168024	15015.879883
5560.779749	1.145156	0.168024	16193.100586
5560.780629	1.122404	0.168024	17180.816406
5560.781584	1.097450	0.168024	18228.880859
5560.782660	0.651585	0.168024	18929.986328
5560.783588	0.094288	0.168024	19017.486328
5560.784446	0.089963	0.168024	19094.675781
5560.785486	0.090103	0.168024	19188.382812
5560.786500	0.089919	0.168024	19279.560547
5560.787382	0.090066	0.168024	19358.998047
5560.788348	0.090106	0.168024	19446.041016
5560.789398	0.090033	0.168024	19540.576172
5560.790320	0.089949	0.168024	19623.509766
5560.791181	0.090015	0.168024	19701.011719
5560.792246	0.090048	0.168024	19796.912109
5561.710530	1.056687	0.218390	451.205353
5561.711403	1.522072	0.218390	1779.973877
5561.712335	1.510126	0.218390	3187.411133
5561.713318	1.468092	0.218390	4630.545410
5561.714197	1.430618	0.218390	5888.058594
5561.715062	1.393693	0.218390	7093.602539
5561.716180	1.352703	0.218390	8605.923828
5561.717067	1.319187	0.218390	9776.042969
5561.717931	1.288773	0.218390	10889.542969
5561.718990	1.252797	0.218390	12216.254883
5561.719969	1.220035	0.218390	13410.669922
5561.720844	1.191178	0.218390	14452.951172
5561.721710	1.162522	0.218390	15459.695312
5561.722840	1.131639	0.218390	16738.447266
5561.723717	1.109919	0.218390	17711.845703
5561.724596	1.075836	0.218390	18657.505859
5561.725703	0.228625	0.218390	18910.593750
5561.726673	0.089886	0.218390	18997.783203
5561.727540	0.090011	0.218390	19075.822266
5561.728557	0.090084	0.218390	19167.437500
5561.729598	0.090018	0.218390	19261.146484
5561.730483	0.089989	0.218390	19340.787109
5561.731388	0.090004	0.218390	19422.240234
5561.732467	0.090062	0.218390	19519.417969
5561.733418	0.089963	0.218390	19604.972656
5561.734280	0.090040	0.218390	19682.587891
5562.805281	1.131676	0.162541	579.418091
5562.806305	1.527927	0.162541	2144.015625
5562.807189	1.502549	0.162541	3472.268799
5562.808160	1.460991	0.162541	4890.891602
5562.809219	1.416456	0.162541	6390.918945
5562.810140	1.379139	0.162541	7661.106445
5562.811003	1.345041	0.162541	8821.876953
5562.812071	1.307043	0.162541	10217.798828
5562.813071	1.271825	0.162541	11489.624023
5562.813963	1.242195	0.162541	12597.662109
5562.814951	1.209419	0.162541	13792.568359
5562.816009	1.175449	0.162541	15036.193359
5562.816918	1.147438	0.162541	16079.213867
5562.817785	1.123279	0.162541	17053.095703
5562.818898	1.095725	0.162541	18272.636719
5562.819869	0.712573	0.162541	18964.544922
5562.820736	0.099115	0.162541	19050.478516
5562.821799	0.090051	0.162541	19146.203125
5562.822838	0.090037	0.162541	19239.751953
5562.823734	0.090033	0.162541	19320.421875
5562.824637	0.090073	0.162541	19401.757812
5562.825711	0.090018	0.162541	19498.437500
5562.826657	0.090037	0.162541	19583.611328
5562.827518	0.090026	0.162541	19661.123047
5562.828560	0.090062	0.162541	19754.968750
5562.829577	0.090033	0.162541	19846.533203
5563.745802	1.121232	0.217016	563.979553
5563.746720	1.526741	0.217016	1965.527588
5563.747588	1.506932	0.217016	3273.544922
5563.748667	1.461328	0.217016	4850.317871
5563.749648	1.420162	0.217016	6243.497070
5563.750546	1.384179	0.217016	7486.489258
5563.751536	1.346459	0.217016	8819.483398
5563.752590	1.308193	0.217016	10198.319336
5563.753484	1.276373	0.217016	11339.397461
5563.754347	1.246128	0.217016	12414.805664
5563.755436	1.211151	0.217016	13733.749023
5563.756420	1.179558	0.217016	14894.434570
5563.757292	1.152118	0.217016	15899.081055
5563.758317	1.124974	0.217016	17052.179687
5563.759373	1.097820	0.217016	18211.476562
5563.760250	0.854993	0.217016	18961.304687
5563.761171	0.117550	0.217016	19069.568359
5563.762258	0.089985	0.217016	19167.382812
5563.763200	0.090044	0.217016	19252.205078
5563.764066	0.089985	0.217016	19330.132812
5563.765086	0.090037	0.217016	19421.970703
5563.766105	0.089982	0.217016	19513.662109
5563.766992	0.090070	0.217016	19593.554687
5563.767926	0.090048	0.217016	19677.658203
5563.768990	0.090015	0.217016	19773.433594
5563.769932	0.090048	0.217016	19858.257812
5564.840892	1.068281	0.164297	452.951263
5564.841996	1.526477	0.164297	2138.181885
5564.842955	1.499718	0.164297	3576.411377
5564.843824	1.461844	0.164297	4846.753906
5564.844835	1.420360	0.164297	6282.738281
5564.845886	1.378392	0.164297	7731.428711
5564.846767	1.343716	0.164297	8915.242187
5564.847649	1.310673	0.164297	10071.255859
5564.848738	1.273857	0.164297	11458.486328
5564.849698	1.241627	0.164297	12650.448242
5564.850561	1.212279	0.164297	13696.645508
5564.851597	1.179097	0.164297	14918.189453
5564.852636	1.147072	0.164297	16109.997070
5564.853524	1.123641	0.164297	17107.791016
5564.854443	1.099892	0.164297	18118.591797
5564.855323	0.941455	0.164297	18947.072266
5564.856279	0.121190	0.164297	19062.929687
5564.857232	0.089846	0.164297	19148.552734
5564.858121	0.089978	0.164297	19228.542969
5564.859103	0.089934	0.164297	19316.857422
5564.860006	0.090044	0.164297	19398.167969
5564.860925	0.090066	0.164297	19480.939453
5564.861788	0.090055	0.164297	19558.656250
5564.862836	0.089927	0.164297	19652.900391
5564.863706	0.089908	0.164297	19731.121094
5564.864579	0.090029	0.164297	19809.716797
5565.782525	1.114669	0.217254	547.302551
5565.783407	1.525411	0.217254	1892.715332
5565.784330	1.506903	0.217254	3283.586914
5565.785417	1.460339	0.217254	4870.975586
5565.786368	1.420814	0.217254	6222.169922
5565.787242	1.385237	0.217254	7432.866699
5565.788296	1.344719	0.217254	8850.201172
5565.789320	1.307743	0.217254	10189.330078
5565.790214	1.276421	0.217254	11330.450195
5565.791174	1.244286	0.217254	12524.964844
5565.792227	1.208990	0.217254	13798.031250
5565.793156	1.178946	0.217254	14893.272461
5565.794021	1.151605	0.217254	15889.411133
5565.795106	1.123304	0.217254	17108.197266
5565.796105	1.097256	0.217254	18204.355469
5565.796994	0.853803	0.217254	18963.386719
5565.797990	0.113844	0.217254	19076.775391
5565.799032	0.089919	0.217254	19170.470703
5565.799927	0.090029	0.217254	19251.046875
5565.800788	0.089974	0.217254	19328.515625
5565.801876	0.090040	0.217254	19426.478516
5565.802866	0.089967	0.217254	19515.544922
5565.803736	0.089971	0.217254	19593.820312
5565.804718	0.090026	0.217254	19682.224609
5565.805776	0.089978	0.217254	19777.421875
5565.806661	0.090007	0.217254	19857.078125
5566.877122	1.052315	0.162283	446.181366
5566.878070	1.520541	0.162283	1887.654053
5566.879134	1.502714	0.162283	3486.541260
5566.880023	1.463547	0.162283	4787.634766
5566.880883	1.426915	0.162283	6014.781738
5566.881912	1.385109	0.162283	7440.058594
5566.882873	1.348385	0.162283	8735.856445
5566.883748	1.316045	0.162283	9887.395508
5566.884671	1.283287	0.162283	11071.870117
5566.885744	1.247494	0.162283	12410.430664
5566.886639	1.216923	0.162283	13499.576172
5566.887559	1.187358	0.162283	14591.946289
5566.888633	1.153806	0.162283	15831.133789
5566.889586	1.127388	0.162283	16905.535156
5566.890450	1.106382	0.162283	17861.449219
5566.891510	0.940521	0.162283	18858.402344
5566.892534	0.121974	0.162283	18983.302734
5566.893418	0.089927	0.162283	19062.798828
5566.894376	0.090066	0.162283	19149.082031
5566.895411	0.090066	0.162283	19242.300781
5566.896334	0.089956	0.162283	19325.330078
5566.897195	0.089989	0.162283	19402.810547
5566.898254	0.090106	0.162283	19498.232422
5566.899263	0.090055	0.162283	19589.097656
5566.900130	0.089952	0.162283	19667.085937
5566.901088	0.090150	0.162283	19753.449219
5567.819710	1.060027	0.211993	454.751526
5567.820570	1.520720	0.211993	1762.570801
5567.821665	1.503801	0.211993	3409.233154
5567.822635	1.461229	0.211993	4826.625488
5567.823556	1.423081	0.211993	6137.283203
5567.824435	1.387668	0.211993	7357.043945
5567.825452	1.349571	0.211993	8729.558594
5567.826358	1.314741	0.211993	9920.713867
5567.827280	1.282932	0.211993	11103.577148
5567.828141	1.252482	0.211993	12181.963867
5567.829166	1.218651	0.211993	13431.081055
5567.830069	1.189497	0.211993	14505.197266
5567.830953	1.161661	0.211993	15532.105469
5567.831941	1.133320	0.211993	16651.826172
5567.832888	1.110472	0.211993	17703.443359
5567.833810	1.084343	0.211993	18703.207031
5567.834683	0.379336	0.211993	19034.367187
5567.835715	0.090000	0.211993	19127.248047
5567.836592	0.089901	0.211993	19206.091797
5567.837455	0.090026	0.211993	19283.783203
5567.838500	0.090026	0.211993	19377.859375
5567.839451	0.089967	0.211993	19463.417969
5567.840325	0.089967	0.211993	19542.048828
5567.841218	0.090073	0.211993	19622.484375
5567.842307	0.090026	0.211993	19720.521484
5567.843201	0.089949	0.211993	19800.935547
5567.844064	0.089978	0.211993	19878.585937
5568.913343	1.055457	0.158448	448.569031
5568.914331	1.521962	0.158448	1952.267090
5568.915403	1.500135	0.158448	3560.412109
5568.916311	1.460215	0.158448	4886.287109
5568.917179	1.422063	0.158448	6120.637695
5568.918286	1.379139	0.158448	7647.345215
5568.919258	1.342339	0.158448	8952.098633
5568.920135	1.310259	0.158448	10101.195312
5568.921195	1.273268	0.158448	11450.859375
5568.922246	1.238324	0.158448	12752.337891
5568.923138	1.208068	0.158448	13829.933594
5568.924078	1.178126	0.158448	14937.372070
5568.925143	1.144962	0.158448	16156.756836
5568.926093	1.120909	0.158448	17221.621094
5568.926961	1.097794	0.158448	18174.505859
5568.928038	0.683679	0.158448	18910.828125
5568.929041	0.093446	0.158448	19004.554687
5568.929923	0.089927	0.158448	19083.869141
5568.930898	0.089974	0.158448	19171.593750
5568.931937	0.090077	0.158448	19265.183594
5568.932850	0.090026	0.158448	19347.376953
5568.933706	0.090018	0.158448	19424.433594
5568.934764	0.090029	0.158448	19519.685547
5568.935773	0.089982	0.158448	19610.476562
5568.936643	0.089971	0.158448	19688.751953
5568.937613	0.090099	0.158448	19776.148437
5569.856959	1.067468	0.205012	456.876434
5569.858053	1.525906	0.205012	2126.217285
5569.859053	1.497953	0.205012	3624.169922
5569.859932	1.459951	0.205012	4907.466797
5569.860940	1.418393	0.205012	6337.207520
5569.861995	1.376235	0.205012	7789.135742
5569.862886	1.341497	0.205012	8984.409180
5569.863747	1.308801	0.205012	10111.287109
5569.864853	1.271858	0.205012	11517.961914
5569.865830	1.239005	0.205012	12728.469727
5569.866690	1.209983	0.205012	13769.054687
5569.867763	1.175449	0.205012	15030.311523
5569.868805	1.143706	0.205012	16222.052734
5569.869701	1.120939	0.205012	17226.414062
5569.870630	1.096406	0.205012	18244.974609
5569.871725	0.608694	0.205012	18911.494141
5569.872659	0.092725	0.205012	18998.099609
5569.873525	0.089930	0.205012	19075.978516
5569.874575	0.090106	0.205012	19170.589844
5569.875595	0.089934	0.205012	19262.322266
5569.876485	0.090070	0.205012	19342.484375
5569.877449	0.090051	0.205012	19429.292969
5569.878489	0.090092	0.205012	19522.988281
5569.879412	0.089963	0.205012	19606.025391
5569.880273	0.090033	0.205012	19683.542969
5569.881338	0.090084	0.205012	19779.482422
5570.947004	1.069530	0.162183	451.341675
5570.948111	1.525854	0.162183	2140.462402
5570.949079	1.499546	0.162183	3592.022949
5570.949940	1.461764	0.162183	4850.601562
5570.950978	1.418016	0.162183	6322.502441
5570.952031	1.376422	0.162183	7771.875000
5570.952924	1.341694	0.162183	8970.007812
5570.953806	1.309951	0.162183	10125.384766
5570.954748	1.277040	0.162183	11328.356445
5570.955736	1.244044	0.162183	12557.471680
5570.956655	1.213293	0.162183	13672.488281
5570.957538	1.184425	0.162183	14718.335937
5570.958571	1.152964	0.162183	15909.347656
5570.959484	1.127651	0.162183	16938.892578
5570.960363	1.105309	0.162183	17910.458984
5570.961235	1.010032	0.162183	18791.207031
5570.962292	0.159298	0.162183	18959.585937
5570.963172	0.089890	0.162183	19038.689453
5570.964038	0.089996	0.162183	19116.626953
5570.965011	0.090051	0.162183	19204.246094
5570.965940	0.089923	0.162183	19287.785156
5570.966812	0.090055	0.162183	19366.312500
5570.967779	0.090062	0.162183	19453.402344
5570.968799	0.089993	0.162183	19545.195312
5570.969693	0.090070	0.162183	19625.716797
5570.970552	0.090099	0.162183	19703.111328
5571.893175	1.049169	0.207106	440.650848
5571.894190	1.523866	0.207106	1987.374878
5571.895243	1.499498	0.207106	3566.346680
5571.896138	1.460332	0.207106	4873.343750
5571.897067	1.421353	0.207106	6193.780273
5571.898133	1.378444	0.207106	7663.201172
5571.899086	1.342284	0.207106	8942.397461
5571.899955	1.310251	0.207106	10081.005859
5571.901003	1.273883	0.207106	11416.035156
5571.902035	1.239602	0.207106	12695.304687
5571.902929	1.209313	0.207106	13776.430664
5571.903882	1.179261	0.207106	14900.266602
5571.904941	1.146291	0.207106	16114.189453
5571.905875	1.122004	0.207106	17162.140625
5571.906799	1.098190	0.207106	18176.867187
5571.907670	0.872289	0.207106	18936.630859
5571.908697	0.105758	0.207106	19045.244141
5571.909573	0.089941	0.207106	19124.033203
5571.910440	0.090081	0.207106	19202.132812
5571.911400	0.089996	0.207106	19288.529297
5571.912343	0.089971	0.207106	19373.371094
5571.913250	0.089956	0.207106	19454.960937
5571.914129	0.090037	0.207106	19534.103516
5571.915124	0.090015	0.207106	19623.667969
5571.916038	0.089985	0.207106	19705.914062
5571.916909	0.089945	0.207106	19784.255859
5572.983854	1.128827	0.157949	609.566528
5572.984915	1.526777	0.157949	2229.477051
5572.985826	1.498597	0.157949	3594.699219
5572.986693	1.459607	0.157949	4860.178223
5572.987792	1.415369	0.157949	6415.668457
5572.988793	1.374705	0.157949	7791.748047
5572.989681	1.341160	0.157949	8982.698242
5572.990691	1.305110	0.157949	10300.859375
5572.991743	1.268654	0.157949	11635.482422
5572.992616	1.238613	0.157949	12716.791992
5572.993499	1.207771	0.157949	13783.253906
5572.994600	1.173944	0.157949	15075.766602
5572.995561	1.144288	0.157949	16175.427734
5572.996437	1.122122	0.157949	17158.406250
5572.997457	1.095201	0.157949	18275.511719
5572.998504	0.617871	0.157949	18922.421875
5572.999392	0.093918	0.157949	19005.822266
5573.000318	0.089971	0.157949	19089.134766
5573.001384	0.090015	0.157949	19185.089844
5573.002324	0.090007	0.157949	19269.697266
5573.003185	0.089960	0.157949	19347.152344
5573.004210	0.090018	0.157949	19439.421875
5573.005223	0.090022	0.157949	19530.613281
5573.006114	0.090055	0.157949	19610.851562
5573.007049	0.090081	0.157949	19695.076172
5573.008105	0.089993	0.157949	19790.109375
5573.929914	1.049290	0.205765	442.800201
5573.930923	1.521259	0.205765	1977.750122
5573.931931	1.501857	0.205765	3491.621582
5573.932807	1.463024	0.205765	4773.230469
5573.933678	1.425780	0.205765	6015.084961
5573.934745	1.383442	0.205765	7491.217773
5573.935675	1.347623	0.205765	8744.507812
5573.936556	1.315247	0.205765	9903.240234
5573.937541	1.281255	0.205765	11165.276367
5573.938558	1.246443	0.205765	12432.909180
5573.939455	1.216355	0.205765	13523.979492
5573.940418	1.185472	0.205765	14665.589844
5573.941488	1.152052	0.205765	15898.285156
5573.942404	1.126710	0.205765	16930.351562
5573.943274	1.104613	0.205765	17891.365234
5573.944360	0.899429	0.205765	18868.144531
5573.945350	0.114130	0.205765	18981.132812
5573.946240	0.089930	0.205765	19061.169922
5573.947245	0.090051	0.205765	19151.671875
5573.948293	0.090011	0.205765	19246.003906
5573.949175	0.089938	0.205765	19325.328125
5573.950033	0.090026	0.205765	19402.570312
5573.951124	0.090015	0.205765	19500.775391
5573.952082	0.090015	0.205765	19587.009766
5573.952937	0.089982	0.205765	19663.943359
5573.953993	0.090073	0.205765	19759.060547
5575.017997	1.122535	0.159834	566.880371
5575.018904	1.526558	0.159834	1951.468140
5575.019773	1.506929	0.159834	3260.989258
5575.020856	1.461248	0.159834	4843.520508
5575.021857	1.418987	0.159834	6263.926270
5575.022749	1.383380	0.159834	7497.901367
5575.023738	1.345792	0.159834	8828.889648
5575.024793	1.307355	0.159834	10208.148437
5575.025699	1.275297	0.159834	11363.567383
5575.026569	1.244777	0.159834	12446.523437
5575.027679	1.208793	0.159834	13788.283203
5575.028654	1.178280	0.159834	14937.106445
5575.029527	1.151030	0.159834	15941.956055
5575.030587	1.122975	0.159834	17132.308594
5575.031632	1.095575	0.159834	18277.183594
5575.032532	0.780458	0.159834	18979.595703
5575.033465	0.105553	0.159834	19078.076172
5575.034523	0.090004	0.159834	19173.300781
5575.035460	0.090011	0.159834	19257.640625
5575.036326	0.090015	0.159834	19335.593750
5575.037368	0.090007	0.159834	19429.380859
5575.038382	0.089996	0.159834	19520.636719
5575.039266	0.089905	0.159834	19600.113281
5575.040218	0.090095	0.159834	19685.884766
5575.041285	0.090070	0.159834	19781.988281
5575.042200	0.089985	0.159834	19864.324219
5575.967764	1.134335	0.202136	576.242004
5575.968700	1.527063	0.202136	2005.572998
5575.969565	1.506471	0.202136	3308.670410
5575.970625	1.460742	0.202136	4857.057129
5575.971640	1.418599	0.202136	6296.934570
5575.972530	1.382604	0.202136	7527.452148
5575.973498	1.346166	0.202136	8830.541016
5575.974554	1.307252	0.202136	10210.999023
5575.975475	1.274839	0.202136	11385.125977
5575.976338	1.244996	0.202136	12459.557617
5575.977423	1.209855	0.202136	13772.250000
5575.978423	1.177324	0.202136	14949.574219
5575.979306	1.149998	0.202136	15965.022461
5575.980273	1.124469	0.202136	17052.384766
5575.981349	1.097003	0.202136	18232.759766
5575.982240	0.823180	0.202136	18966.212891
5575.983111	0.111848	0.202136	19063.632812
5575.984207	0.089993	0.202136	19162.265625
5575.985188	0.090004	0.202136	19250.558594
5575.986055	0.089941	0.202136	19328.537109
5575.987120	0.090051	0.202136	19424.441406
5575.988169	0.089963	0.202136	19518.812500
5575.989059	0.089993	0.202136	19598.906250
5575.989971	0.090029	0.202136	19681.013672
5575.991038	0.089982	0.202136	19777.023437
5575.991986	0.090015	0.202136	19862.357422
5577.053139	1.074152	0.158352	484.442322
5577.054220	1.526400	0.158352	2134.480957
5577.055182	1.499125	0.158352	3576.639160
5577.056053	1.461057	0.158352	4849.219727
5577.057088	1.418090	0.158352	6316.942383
5577.058121	1.376836	0.158352	7739.213867
5577.059012	1.342680	0.158352	8935.541016
5577.059892	1.310453	0.158352	10088.739258
5577.060852	1.277402	0.158352	11315.044922
5577.061845	1.244030	0.158352	12550.366211
5577.062769	1.213092	0.158352	13671.263672
5577.063639	1.184663	0.158352	14701.920898
5577.064674	1.153085	0.158352	15895.363281
5577.065552	1.127959	0.158352	16885.710937
5577.066420	1.106697	0.158352	17846.324219
5577.067309	1.024526	0.158352	18757.128906
5577.068366	0.165619	0.158352	18932.187500
5577.069263	0.089788	0.158352	19012.726562
5577.070125	0.090062	0.158352	19090.359375
5577.071214	0.090048	0.158352	19188.421875
5577.072123	0.089956	0.158352	19270.191406
5577.073001	0.090051	0.158352	19349.255859
5577.073987	0.090073	0.158352	19438.068359
5577.074973	0.089945	0.158352	19526.753906
5577.075854	0.089985	0.158352	19606.031250
5577.076712	0.089985	0.158352	19683.238281
5578.002877	1.063660	0.203122	449.928040
5578.003963	1.525902	0.203122	2107.057861
5578.004956	1.498348	0.203122	3594.917725
5578.005841	1.460182	0.203122	4887.178711
5578.006856	1.418225	0.203122	6326.677246
5578.007912	1.376382	0.203122	7780.136230
5578.008794	1.341881	0.203122	8963.675781
5578.009679	1.308358	0.203122	10121.572266
5578.010785	1.271547	0.203122	11527.902344
5578.011743	1.239137	0.203122	12714.996094
5578.012606	1.210129	0.203122	13759.337891
5578.013629	1.177072	0.203122	14963.482422
5578.014680	1.144753	0.203122	16166.618164
5578.015575	1.121843	0.203122	17170.667969
5578.016484	1.098464	0.203122	18169.171875
5578.017365	0.891866	0.203122	18954.906250
5578.018325	0.109640	0.203122	19060.160156
5578.019272	0.089879	0.203122	19145.275391
5578.020165	0.090044	0.203122	19225.685547
5578.021150	0.089982	0.203122	19314.318359
5578.022060	0.089956	0.203122	19396.177734
5578.022976	0.089989	0.203122	19478.607422
5578.023838	0.089952	0.203122	19556.146484
5578.024870	0.089916	0.203122	19648.939453
5578.025741	0.089956	0.203122	19727.291016
5578.026614	0.089978	0.203122	19805.841797
5579.091419	1.095901	0.155584	499.730804
5579.092300	1.523840	0.155584	1842.234131
5579.093273	1.507002	0.155584	3308.546875
5579.094340	1.461277	0.155584	4867.729492
5579.095242	1.422850	0.155584	6151.140625
5579.096105	1.386654	0.155584	7347.823242
5579.097199	1.345909	0.155584	8820.248047
5579.098193	1.309482	0.155584	10121.874023
5579.099074	1.278757	0.155584	11248.458984
5579.100075	1.245264	0.155584	12494.967773
5579.101134	1.210496	0.155584	13776.882812
5579.102018	1.181235	0.155584	14821.094727
5579.102897	1.152693	0.155584	15834.311523
5579.104008	1.123901	0.155584	17082.966797
5579.104958	1.099420	0.155584	18127.416016
5579.105831	0.933827	0.155584	18942.646484
5579.106855	0.118202	0.155584	19063.685547
5579.107887	0.089861	0.155584	19156.421875
5579.108775	0.090044	0.155584	19236.380859
5579.109701	0.090037	0.155584	19319.753906
5579.110757	0.090055	0.155584	19414.851562
5579.111696	0.089894	0.155584	19499.261719
5579.112562	0.089897	0.155584	19577.113281
5579.113610	0.089974	0.155584	19671.406250
5579.114619	0.089941	0.155584	19762.156250
5579.115515	0.089996	0.155584	19842.792969
5580.037161	1.145306	0.201241	595.559326
5580.038126	1.527616	0.201241	2069.708740
5580.038985	1.504944	0.201241	3362.455566
5580.040052	1.458428	0.201241	4918.597656
5580.041116	1.415109	0.201241	6424.273437
5580.041995	1.378978	0.201241	7636.395508
5580.042927	1.343185	0.201241	8888.244141
5580.043985	1.304839	0.201241	10268.763672
5580.044933	1.272074	0.201241	11474.689453
5580.045804	1.242462	0.201241	12556.874023
5580.046837	1.208335	0.201241	13805.083984
5580.047862	1.175475	0.201241	15009.945312
5580.048766	1.147793	0.201241	16047.549805
5580.049721	1.123227	0.201241	17120.232422
5580.050776	1.095223	0.201241	18275.693359
5580.051714	0.737985	0.201241	18967.923828
5580.052576	0.101517	0.201241	19055.431641
5580.053635	0.089956	0.201241	19150.695312
5580.054619	0.089982	0.201241	19239.236328
5580.055502	0.090018	0.201241	19318.722656
5580.056485	0.089989	0.201241	19407.181641
5580.057538	0.090004	0.201241	19501.955078
5580.058448	0.089960	0.201241	19583.818359
5580.059306	0.089989	0.201241	19661.029297
5580.060381	0.090121	0.201241	19757.910156
5580.061375	0.089908	0.201241	19847.279297
5581.126121	1.075788	0.156781	506.696381
5581.127199	1.526367	0.156781	2152.120117
5581.128148	1.498638	0.156781	3574.327393
5581.129064	1.459003	0.156781	4910.773926
5581.129940	1.422264	0.156781	6156.677734
5581.130982	1.381208	0.156781	7595.896973
5581.131880	1.346089	0.156781	8804.684570
5581.132756	1.313833	0.156781	9955.602539
5581.133687	1.281284	0.156781	11148.478516
5581.134698	1.247285	0.156781	12409.483398
5581.135612	1.216549	0.156781	13521.409180
5581.136479	1.188116	0.156781	14551.505859
5581.137479	1.157366	0.156781	15708.871094
5581.138391	1.130427	0.156781	16739.820312
5581.139315	1.108784	0.156781	17764.335937
5581.140182	1.062876	0.156781	18685.849609
5581.141239	0.213508	0.156781	18911.527344
5581.142125	0.089762	0.156781	18991.056641
5581.142985	0.090066	0.156781	19068.513672
5581.144065	0.089963	0.156781	19165.673828
5581.144972	0.089879	0.156781	19247.193359
5581.145846	0.089985	0.156781	19325.839844
5581.146846	0.089978	0.156781	19415.818359
5581.147857	0.089875	0.156781	19506.681641
5581.148748	0.089952	0.156781	19586.830078
5581.149605	0.089930	0.156781	19663.900391
5582.073356	1.124359	0.201459	556.557739
5582.074377	1.527257	0.201459	2115.887207
5582.075273	1.502062	0.201459	3461.734375
5582.076236	1.461010	0.201459	4868.686523
5582.077298	1.416185	0.201459	6372.675293
5582.078226	1.378795	0.201459	7652.197266
5582.079093	1.344657	0.201459	8818.014648
5582.080178	1.306044	0.201459	10235.072266
5582.081173	1.271213	0.201459	11499.929687
5582.082072	1.241528	0.201459	12616.063477
5582.083070	1.208079	0.201459	13821.725586
5582.084139	1.174783	0.201459	15077.568359
5582.085031	1.146185	0.201459	16099.965820
5582.085894	1.122741	0.201459	17068.890625
5582.086991	1.095461	0.201459	18270.611328
5582.087962	0.712291	0.201459	18962.246094
5582.088821	0.099565	0.201459	19047.773437
5582.089870	0.089971	0.201459	19142.152344
5582.090903	0.089978	0.201459	19235.099609
5582.091776	0.089941	0.201459	19313.619141
5582.092647	0.089919	0.201459	19391.939453
5582.093544	0.089927	0.201459	19472.603516
5582.094567	0.089945	0.201459	19564.617187
5582.095465	0.089894	0.201459	19645.341797
5582.096344	0.089875	0.201459	19724.341797
5582.097317	0.089919	0.201459	19811.833984
5583.163430	1.148676	0.155149	593.865295
5583.164428	1.527645	0.155149	2118.455322
5583.165325	1.502051	0.155149	3465.794922
5583.166336	1.458743	0.155149	4940.583984
5583.167389	1.415197	0.155149	6430.786133
5583.168267	1.379176	0.155149	7641.702637
5583.169141	1.344386	0.155149	8816.696289
5583.170259	1.305428	0.155149	10276.165039
5583.171227	1.271576	0.155149	11507.050781
5583.172091	1.242136	0.155149	12580.256836
5583.173117	1.208284	0.155149	13819.956055
5583.174167	1.175255	0.155149	15053.973633
5583.175046	1.147537	0.155149	16062.658203
5583.175972	1.123099	0.155149	17102.648437
5583.177041	1.095275	0.155149	18273.496094
5583.177984	0.732198	0.155149	18963.958984
5583.178857	0.100602	0.155149	19051.785156
5583.179884	0.089949	0.155149	19144.162109
5583.180910	0.089839	0.155149	19236.335937
5583.181798	0.089886	0.155149	19316.154297
5583.182747	0.090000	0.155149	19401.564453
5583.183804	0.089952	0.155149	19496.644531
5583.184736	0.089989	0.155149	19580.513672
5583.185597	0.089938	0.155149	19657.949219
5583.186682	0.090007	0.155149	19755.607422
5583.187676	0.089934	0.155149	19845.001953
5584.107514	1.115574	0.198941	528.781982
5584.108393	1.524184	0.198941	1868.540161
5584.109362	1.506302	0.198941	3328.147217
5584.110410	1.460951	0.198941	4859.223633
5584.111335	1.421869	0.198941	6174.452148
5584.112201	1.386010	0.198941	7374.736328
5584.113272	1.345708	0.198941	8815.989258
5584.114273	1.309076	0.198941	10126.374023
5584.115158	1.278047	0.198941	11257.445312
5584.116163	1.244839	0.198941	12508.507812
5584.117223	1.209595	0.198941	13790.677734
5584.118109	1.180173	0.198941	14836.311523
5584.118982	1.151796	0.198941	15841.829102
5584.120084	1.123253	0.198941	17079.654297
5584.121067	1.098095	0.198941	18159.082031
5584.121938	0.906804	0.198941	18948.908203
5584.122974	0.110420	0.198941	19063.302734
5584.124023	0.089971	0.198941	19157.681641
5584.124909	0.089879	0.198941	19237.314453
5584.125823	0.089985	0.198941	19319.560547
5584.126890	0.089949	0.198941	19415.535156
5584.127831	0.089934	0.198941	19500.164062
5584.128699	0.089978	0.198941	19578.265625
5584.129732	0.090044	0.198941	19671.281250
5584.130753	0.089996	0.198941	19763.167969
5584.131646	0.089923	0.198941	19843.468750
5585.200175	1.164441	0.153518	626.469177
5585.201121	1.527360	0.153518	2071.351318
5585.202044	1.502659	0.153518	3458.305176
5585.202919	1.464141	0.153518	4739.428223
5585.203958	1.421473	0.153518	6216.338867
5585.204857	1.384812	0.153518	7461.285156
5585.205735	1.351025	0.153518	8647.485352
5585.206668	1.316517	0.153518	9875.795898
5585.207665	1.281943	0.153518	11153.893555
5585.208587	1.250790	0.153518	12307.122070
5585.209454	1.221021	0.153518	13365.747070
5585.210498	1.187787	0.153518	14605.796875
5585.211387	1.159109	0.153518	15636.244141
5585.212270	1.132874	0.153518	16636.572266
5585.213263	1.109971	0.153518	17738.773437
5585.214262	1.071163	0.153518	18808.865234
5585.215159	0.255209	0.153518	19037.787109
5585.216022	0.089982	0.153518	19115.441406
5585.217112	0.090015	0.153518	19213.556641
5585.218011	0.089886	0.153518	19294.365234
5585.218887	0.089945	0.153518	19373.156250
5585.219900	0.090033	0.153518	19464.359375
5585.220884	0.089897	0.153518	19552.818359
5585.221772	0.090018	0.153518	19632.753906
5585.222628	0.089949	0.153518	19709.750000
5585.223719	0.090055	0.153518	19808.000000
5586.139664	1.123425	0.200516	559.465820
5586.140688	1.526942	0.200516	2123.054687
5586.141564	1.502516	0.200516	3439.258545
5586.142541	1.460467	0.200516	4866.135254
5586.143613	1.416138	0.200516	6384.234863
5586.144506	1.379418	0.200516	7616.054687
5586.145378	1.345159	0.200516	8789.033203
5586.146455	1.306970	0.200516	10196.640625
5586.147440	1.272286	0.200516	11449.842773
5586.148336	1.242466	0.200516	12563.091797
5586.149326	1.209606	0.200516	13760.601562
5586.150399	1.175555	0.200516	15021.972656
5586.151299	1.147383	0.200516	16054.617187
5586.152166	1.123370	0.200516	17028.580078
5586.153279	1.095784	0.200516	18248.187500
5586.154246	0.733341	0.200516	18957.328125
5586.155164	0.097826	0.200516	19047.132812
5586.156041	0.089799	0.200516	19125.886719
5586.157094	0.090026	0.200516	19220.683594
5586.157989	0.089967	0.200516	19301.203125
5586.158867	0.089978	0.200516	19380.203125
5586.159744	0.090044	0.200516	19459.171875
5586.160773	0.089941	0.200516	19551.720703
5586.161648	0.089949	0.200516	19630.425781
5586.162520	0.089971	0.200516	19708.880859
5586.163492	0.089993	0.200516	19796.353516
5587.237824	1.060950	0.149679	453.025513
5587.238690	1.520442	0.149679	1769.728149
5587.239804	1.501963	0.149679	3442.914795
5587.240780	1.460405	0.149679	4868.270508
5587.241646	1.423693	0.149679	6101.188477
5587.242670	1.382465	0.149679	7516.832031
5587.243728	1.342299	0.149679	8936.984375
5587.244624	1.309438	0.149679	10110.241211
5587.245536	1.277413	0.149679	11275.242187
5587.246612	1.241396	0.149679	12610.984375
5587.247560	1.209763	0.149679	13757.839844
5587.248427	1.181356	0.149679	14782.076172
5587.249472	1.149521	0.149679	15983.326172
5587.250498	1.122568	0.149679	17135.082031
5587.251384	1.099537	0.149679	18109.271484
5587.252350	0.833082	0.149679	18914.029297
5587.253401	0.102898	0.149679	19022.175781
5587.254321	0.089919	0.149679	19104.902344
5587.255177	0.089919	0.149679	19181.873047
5587.256242	0.089989	0.149679	19277.710937
5587.257249	0.089897	0.149679	19368.238281
5587.258118	0.089949	0.149679	19446.404297
5587.259079	0.089956	0.149679	19532.851562
5587.260135	0.089894	0.149679	19627.779297
5587.261050	0.089828	0.149679	19709.972656
5587.261915	0.089927	0.149679	19787.759766
5588.175298	1.055013	0.195984	450.490723
5588.176326	1.523632	0.195984	2016.783936
5588.177290	1.501985	0.195984	3464.697266
5588.178161	1.463895	0.195984	4739.750000
5588.179187	1.421466	0.195984	6198.174316
5588.180230	1.379846	0.195984	7637.354004
5588.181103	1.345309	0.195984	8811.808594
5588.181996	1.311877	0.195984	9983.315430
5588.183083	1.274282	0.195984	11368.459961
5588.184054	1.242173	0.195984	12574.609375
5588.184932	1.212770	0.195984	13639.420898
5588.185949	1.180005	0.195984	14839.486328
5588.186992	1.147932	0.195984	16036.779297
5588.187883	1.124224	0.195984	17038.462891
5588.188825	1.100764	0.195984	18075.382812
5588.189890	0.776499	0.195984	18902.353516
5588.190829	0.100909	0.195984	18997.107422
5588.191691	0.089901	0.195984	19074.601562
5588.192757	0.090000	0.195984	19170.541016
5588.193763	0.089963	0.195984	19261.044922
5588.194649	0.089949	0.195984	19340.740234
5588.195592	0.090055	0.195984	19425.662109
5588.196645	0.090033	0.195984	19520.466797
5588.197557	0.090015	0.195984	19602.560547
5588.198413	0.089978	0.195984	19679.582031
5588.199459	0.090037	0.195984	19773.759766
5589.275067	1.066044	0.149485	453.068573
5589.276164	1.525909	0.149485	2126.991211
5589.277157	1.497660	0.149485	3614.167480
5589.278055	1.458732	0.149485	4924.108398
5589.278934	1.422111	0.149485	6174.143555
5589.279944	1.382190	0.149485	7570.155273
5589.280861	1.345931	0.149485	8804.374023
5589.281789	1.312478	0.149485	10022.353516
5589.282654	1.281021	0.149485	11130.436523
5589.283695	1.247087	0.149485	12428.654297
5589.284574	1.216956	0.149485	13498.358398
5589.285451	1.188644	0.149485	14540.798828
5589.286435	1.158336	0.149485	15680.601562
5589.287386	1.130383	0.149485	16755.595703
5589.288300	1.108964	0.149485	17769.187500
5589.289182	1.082582	0.149485	18724.025391
5589.290223	0.252532	0.149485	18986.910156
5589.291117	0.089784	0.149485	19067.177734
5589.291980	0.089919	0.149485	19144.777344
5589.293027	0.089945	0.149485	19238.949219
5589.293975	0.089846	0.149485	19324.123047
5589.294847	0.089912	0.149485	19402.527344
5589.295754	0.089945	0.149485	19484.107422
5589.296818	0.089956	0.149485	19579.820312
5589.297695	0.089919	0.149485	19658.679687
5589.298560	0.089952	0.149485	19736.488281
5590.208462	1.076700	0.199106	479.131714
5590.209562	1.526151	0.199106	2157.897949
5590.210520	1.498517	0.199106	3593.477051
5590.211397	1.460094	0.199106	4873.979492
5590.212409	1.418002	0.199106	6308.997070
5590.213455	1.376400	0.199106	7748.711426
5590.214348	1.341855	0.199106	8946.988281
5590.215284	1.308131	0.199106	10171.399414
5590.216357	1.270580	0.199106	11534.731445
5590.217304	1.238980	0.199106	12708.044922
5590.218169	1.209891	0.199106	13754.601562
5590.219242	1.175801	0.199106	15016.236328
5590.220251	1.144596	0.199106	16171.133789
5590.221152	1.121832	0.199106	17181.904297
5590.222127	1.096593	0.199106	18251.082031
5590.223185	0.639485	0.199106	18927.656250
5590.224094	0.094314	0.199106	19013.386719
5590.224951	0.089894	0.199106	19090.425781
5590.226021	0.090015	0.199106	19186.742187
5590.227013	0.090007	0.199106	19276.029297
5590.227888	0.089941	0.199106	19354.728516
5590.228867	0.089996	0.199106	19442.833984
5590.229914	0.089963	0.199106	19537.025391
5590.230796	0.090040	0.199106	19616.441406
5590.231667	0.090040	0.199106	19694.867187
5590.232735	0.090121	0.199106	19791.117187
5591.312922	1.140648	0.146299	580.589966
5591.313857	1.527045	0.146299	2008.376709
5591.314725	1.505687	0.146299	3315.313232
5591.315768	1.460684	0.146299	4838.806152
5591.316792	1.418144	0.146299	6290.986328
5591.317682	1.382388	0.146299	7521.311523
5591.318653	1.345488	0.146299	8827.780273
5591.319716	1.306450	0.146299	10216.537109
5591.320650	1.273975	0.146299	11406.429687
5591.321518	1.243791	0.146299	12486.041016
5591.322618	1.208086	0.146299	13814.935547
5591.323612	1.175903	0.146299	14983.783203
5591.324508	1.148463	0.146299	16012.806641
5591.325497	1.122986	0.146299	17123.439453
5591.326542	1.095557	0.146299	18268.296875
5591.327452	0.775444	0.146299	18973.951172
5591.328320	0.105267	0.146299	19065.322266
5591.329416	0.089952	0.146299	19163.910156
5591.330376	0.089861	0.146299	19250.175781
5591.331236	0.089923	0.146299	19327.509766
5591.332276	0.089930	0.146299	19421.037109
5591.333319	0.089971	0.146299	19514.876953
5591.334202	0.089974	0.146299	19594.324219
5591.335117	0.089971	0.146299	19676.646484
5591.336183	0.089971	0.146299	19772.554687
5591.337127	0.089930	0.146299	19857.449219
5592.242707	1.106063	0.199735	567.410461
5592.243671	1.526990	0.199735	2039.428467
5592.244581	1.503285	0.199735	3407.417725
5592.245460	1.464606	0.199735	4694.806152
5592.246498	1.422100	0.199735	6170.945312
5592.247394	1.385288	0.199735	7412.163574
5592.248274	1.351271	0.199735	8601.282227
5592.249181	1.317436	0.199735	9796.197266
5592.250193	1.281943	0.199735	11093.523437
5592.251083	1.252013	0.199735	12207.814453
5592.251942	1.222035	0.199735	13257.542969
5592.253032	1.187981	0.199735	14552.442383
5592.253928	1.159369	0.199735	15591.237305
5592.254811	1.133207	0.199735	16591.859375
5592.255809	1.109945	0.199735	17699.583984
5592.256815	1.072090	0.199735	18778.105469
5592.257708	0.261841	0.199735	19011.929687
5592.258569	0.089941	0.199735	19089.369141
5592.259647	0.089883	0.199735	19186.263672
5592.260567	0.089868	0.199735	19268.941406
5592.261427	0.089927	0.199735	19346.279297
5592.262504	0.090026	0.199735	19443.236328
5592.263476	0.089919	0.199735	19530.638672
5592.264361	0.089993	0.199735	19610.281250
5592.265343	0.089996	0.199735	19698.658203
5592.266378	0.089971	0.199735	19791.777344
5593.347519	1.053673	0.146871	448.864746
5593.348515	1.520900	0.146871	1963.680786
5593.349559	1.500535	0.146871	3530.239014
5593.350464	1.460826	0.146871	4852.287109
5593.351328	1.423158	0.146871	6081.895508
5593.352398	1.380747	0.146871	7559.294922
5593.353406	1.342013	0.146871	8912.043945
5593.354306	1.309794	0.146871	10090.858398
5593.355297	1.275352	0.146871	11354.732422
5593.356367	1.240063	0.146871	12681.600586
5593.357262	1.209371	0.146871	13763.988281
5593.358148	1.180122	0.146871	14809.576172
5593.359242	1.147024	0.146871	16064.419922
5593.360207	1.122264	0.146871	17147.404297
5593.361078	1.099222	0.146871	18104.826172
5593.362123	0.765363	0.146871	18904.630859
5593.363155	0.096442	0.146871	19004.158203
5593.364045	0.089905	0.146871	19084.173828
5593.364986	0.090106	0.146871	19168.962891
5593.366025	0.089978	0.146871	19262.449219
5593.366971	0.089843	0.146871	19347.439453
5593.367892	0.089919	0.146871	19430.255859
5593.368758	0.089934	0.146871	19508.138672
5593.369792	0.089993	0.146871	19601.191406
5593.370673	0.090026	0.146871	19680.503906
5593.371537	0.089967	0.146871	19758.236328
5594.277307	1.051714	0.199670	443.823242
5594.278269	1.520068	0.199670	1906.128906
5594.279328	1.500498	0.199670	3495.156250
5594.280263	1.460010	0.199670	4860.265137
5594.281133	1.423125	0.199670	6098.383789
5594.282205	1.380432	0.199670	7578.207031
5594.283202	1.342141	0.199670	8916.321289
5594.284095	1.309786	0.199670	10085.960937
5594.285061	1.276326	0.199670	11318.891602
5594.286112	1.241177	0.199670	12623.368164
5594.287033	1.210005	0.199670	13737.782227
5594.287902	1.181283	0.199670	14764.317383
5594.288993	1.148401	0.199670	16017.222656
5594.289981	1.122429	0.199670	17126.183594
5594.290868	1.099640	0.199670	18101.564453
5594.291882	0.791437	0.199670	18904.082031
5594.292935	0.098610	0.199670	19007.917969
5594.293814	0.089795	0.199670	19086.847656
5594.294682	0.089938	0.199670	19164.914062
5594.295768	0.090004	0.199670	19262.658203
5594.296731	0.089908	0.199670	19349.240234
5594.297589	0.090066	0.199670	19426.517578
5594.298634	0.089989	0.199670	19520.556641
5594.299677	0.089897	0.199670	19614.320312
5594.300558	0.089934	0.199670	19693.552734
5594.301476	0.089883	0.199670	19776.064453
5595.384762	1.052384	0.141425	447.263214
5595.385735	1.520050	0.141425	1926.271851
5595.386703	1.504127	0.141425	3382.267090
5595.387583	1.465961	0.141425	4672.312500
5595.388508	1.426802	0.141425	5992.104004
5595.389574	1.384405	0.141425	7467.880371
5595.390474	1.349301	0.141425	8682.250977
5595.391346	1.316939	0.141425	9830.621094
5595.392403	1.280171	0.141425	11183.761719
5595.393378	1.247186	0.141425	12399.768555
5595.394260	1.217450	0.141425	13473.559570
5595.395192	1.187476	0.141425	14580.287109
5595.396230	1.155286	0.141425	15779.473633
5595.397119	1.129819	0.141425	16783.882812
5595.398039	1.107565	0.141425	17802.841797
5595.399102	0.978900	0.141425	18843.412109
5595.400057	0.155852	0.141425	18992.250000
5595.400915	0.089875	0.141425	19069.363281
5595.401943	0.089967	0.141425	19161.849609
5595.402968	0.089938	0.141425	19254.035156
5595.403859	0.089989	0.141425	19334.214844
5595.404798	0.089945	0.141425	19418.673828
5595.405844	0.089996	0.141425	19512.810547
5595.406776	0.089875	0.141425	19596.574219
5595.407641	0.090015	0.141425	19674.437500
5595.408693	0.089996	0.141425	19769.113281
5596.311586	1.137678	0.198337	602.969421
5596.312651	1.526686	0.198337	2228.889648
5596.313555	1.498334	0.198337	3583.383301
5596.314419	1.459563	0.198337	4844.445801
5596.315519	1.414911	0.198337	6400.847656
5596.316486	1.375865	0.198337	7731.309570
5596.317375	1.342280	0.198337	8924.596680
5596.318397	1.305677	0.198337	10258.999023
5596.319433	1.269730	0.198337	11574.439453
5596.320319	1.239221	0.198337	12672.389648
5596.321222	1.208672	0.198337	13763.820312
5596.322322	1.174585	0.198337	15055.863281
5596.323270	1.145032	0.198337	16141.353516
5596.324193	1.121818	0.198337	17176.791016
5596.325067	1.099197	0.198337	18137.488281
5596.326124	0.756998	0.198337	18937.634766
5596.327002	0.102100	0.198337	19027.277344
5596.327872	0.089835	0.198337	19105.433594
5596.328753	0.090029	0.198337	19184.750000
5596.329791	0.089989	0.198337	19278.158203
5596.330684	0.089960	0.198337	19358.492187
5596.331556	0.090000	0.198337	19436.972656
5596.332537	0.090011	0.198337	19525.273437
5596.333464	0.089930	0.198337	19608.638672
5596.334379	0.090033	0.198337	19691.019531
5596.335242	0.090004	0.198337	19768.693359
5597.419505	1.104613	0.143076	526.900391
5597.420376	1.523903	0.143076	1854.219604
5597.421342	1.506013	0.143076	3309.028320
5597.422412	1.459977	0.143076	4871.203613
5597.423332	1.421199	0.143076	6178.706543
5597.424210	1.384856	0.143076	7394.610352
5597.425281	1.344730	0.143076	8834.816406
5597.426270	1.308354	0.143076	10128.779297
5597.427169	1.277252	0.143076	11277.029297
5597.428150	1.244180	0.143076	12497.569336
5597.429217	1.208895	0.143076	13787.460937
5597.430121	1.179298	0.143076	14853.546875
5597.430989	1.151510	0.143076	15853.057617
5597.432088	1.123074	0.143076	17087.316406
5597.433067	1.098182	0.143076	18162.437500
5597.433938	0.901615	0.143076	18947.744141
5597.435019	0.106007	0.143076	19062.337891
5597.436049	0.089897	0.143076	19154.931641
5597.436941	0.089996	0.143076	19235.208984
5597.437863	0.090051	0.143076	19318.236328
5597.438919	0.089945	0.143076	19413.218750
5597.439857	0.089952	0.143076	19497.593750
5597.440721	0.090059	0.143076	19575.404297
5597.441757	0.089963	0.143076	19668.605469
5597.442781	0.089982	0.143076	19760.746094
5597.443658	0.089989	0.143076	19839.666016
5598.347778	1.084310	0.194103	542.155151
5598.348823	1.525814	0.194103	2136.630859
5598.349772	1.498747	0.194103	3558.942383
5598.350637	1.460706	0.194103	4822.452637
5598.351686	1.417196	0.194103	6309.091309
5598.352716	1.376250	0.194103	7726.628906
5598.353601	1.342178	0.194103	8914.456055
5598.354575	1.307648	0.194103	10188.105469
5598.355621	1.270748	0.194103	11517.308594
5598.356551	1.239423	0.194103	12669.971680
5598.357413	1.209774	0.194103	13712.796875
5598.358485	1.176387	0.194103	14973.883789
5598.359490	1.145215	0.194103	16124.824219
5598.360365	1.122792	0.194103	17107.267578
5598.361348	1.097040	0.194103	18185.658203
5598.362413	0.670448	0.194103	18899.685547
5598.363318	0.095475	0.194103	18986.089844
5598.364182	0.089843	0.194103	19063.712891
5598.365278	0.090055	0.194103	19162.414062
5598.366249	0.089956	0.194103	19249.761719
5598.367123	0.089916	0.194103	19328.347656
5598.368112	0.090022	0.194103	19417.378906
5598.369164	0.089934	0.194103	19511.990234
5598.370058	0.089938	0.194103	19592.394531
5598.370917	0.089967	0.194103	19669.675781
5598.372024	0.090004	0.194103	19769.310547
5599.456221	1.075488	0.137549	480.743286
5599.457094	1.522269	0.137549	1809.684326
5599.457958	1.511503	0.137549	3115.622559
5599.459026	1.465986	0.137549	4681.295898
5599.459926	1.426934	0.137549	5965.536133
5599.460836	1.390107	0.137549	7230.533691
5599.461717	1.354581	0.137549	8423.919922
5599.462768	1.316997	0.137549	9808.083984
5599.463667	1.285437	0.137549	10963.691406
5599.464546	1.255375	0.137549	12067.166016
5599.465536	1.222976	0.137549	13277.912109
5599.466475	1.191936	0.137549	14397.140625
5599.467356	1.164294	0.137549	15422.883789
5599.468328	1.135540	0.137549	16526.628906
5599.469337	1.111406	0.137549	17648.037109
5599.470225	1.086299	0.137549	18612.669922
5599.471095	0.461001	0.137549	19013.740234
5599.472163	0.090227	0.137549	19110.103516
5599.473082	0.089879	0.137549	19192.703125
5599.473948	0.089905	0.137549	19270.560547
5599.474911	0.089945	0.137549	19357.177734
5599.475935	0.089883	0.137549	19449.216797
5599.476824	0.089952	0.137549	19529.183594
5599.477688	0.089919	0.137549	19606.873047
5599.478749	0.089993	0.137549	19702.355469
5599.479685	0.089905	0.137549	19786.505859
5599.480552	0.090026	0.137549	19864.558594
5600.383930	1.064271	0.192645	451.251038
5600.385015	1.524906	0.192645	2105.774170
5600.386016	1.497854	0.192645	3605.125977
5600.386895	1.459424	0.192645	4887.959473
5600.387895	1.417694	0.192645	6305.653320
5600.388961	1.375642	0.192645	7772.087891
5600.389847	1.341196	0.192645	8960.387695
5600.390714	1.308252	0.192645	10094.642578
5600.391822	1.271082	0.192645	11503.000977
5600.392793	1.238507	0.192645	12705.591797
5600.393666	1.209624	0.192645	13761.593750
5600.394683	1.176932	0.192645	14958.534180
5600.395735	1.145002	0.192645	16163.076172
5600.396627	1.121664	0.192645	17163.599609
5600.397560	1.097282	0.192645	18187.363281
5600.398640	0.667262	0.192645	18908.005859
5600.399584	0.094127	0.192645	18996.861328
5600.400449	0.089854	0.192645	19074.583984
5600.401502	0.090015	0.192645	19169.369141
5600.402513	0.089894	0.192645	19260.251953
5600.403402	0.089956	0.192645	19340.222656
5600.404358	0.089982	0.192645	19426.246094
5600.405406	0.089956	0.192645	19520.519531
5600.406324	0.089857	0.192645	19603.007812
5600.407253	0.089945	0.192645	19686.566406
5600.408117	0.089938	0.192645	19764.273437
5601.490366	1.054248	0.139149	445.946930
5601.491425	1.524661	0.139149	2060.562500
5601.492446	1.498590	0.139149	3590.623047
5601.493324	1.459980	0.139149	4872.485840
5601.494278	1.420071	0.139149	6227.233398
5601.495357	1.377242	0.139149	7713.277832
5601.496263	1.341976	0.139149	8929.108398
5601.497136	1.309449	0.139149	10072.257812
5601.498204	1.272770	0.139149	11431.576172
5601.499206	1.238906	0.139149	12672.959961
5601.500104	1.209291	0.139149	13758.903320
5601.501096	1.177778	0.139149	14927.259766
5601.502157	1.145475	0.139149	16142.608398
5601.503064	1.121942	0.139149	17160.210937
5601.503929	1.098343	0.139149	18110.277344
5601.505048	0.693571	0.139149	18886.382812
5601.506011	0.094490	0.139149	18977.376953
5601.506881	0.089908	0.139149	19055.597656
5601.507919	0.090000	0.139149	19149.017578
5601.508959	0.089971	0.139149	19242.587891
5601.509854	0.089908	0.139149	19323.056641
5601.510773	0.089985	0.139149	19405.753906
5601.511843	0.090037	0.139149	19502.093750
5601.512784	0.089941	0.139149	19586.728516
5601.513643	0.089934	0.139149	19663.982422
5601.514682	0.089982	0.139149	19757.472656
5602.419147	1.078341	0.189889	475.548370
5602.420026	1.522280	0.189889	1813.632812
5602.420892	1.509661	0.189889	3120.999023
5602.422003	1.463877	0.189889	4747.366211
5602.422920	1.424941	0.189889	6054.037598
5602.423791	1.388438	0.189889	7263.366699
5602.424890	1.347649	0.189889	8744.432617
5602.425850	1.311899	0.189889	10003.856445
5602.426734	1.280841	0.189889	11136.120117
5602.427760	1.246871	0.189889	12415.410156
5602.428806	1.212096	0.189889	13683.262695
5602.429696	1.182821	0.189889	14735.973633
5602.430568	1.154740	0.189889	15742.907227
5602.431660	1.126000	0.189889	16972.500000
5602.432622	1.101746	0.189889	18032.378906
5602.433488	1.000675	0.189889	18898.962891
5602.434534	0.139662	0.189889	19045.048828
5602.435561	0.089949	0.189889	19137.425781
5602.436433	0.090018	0.189889	19215.921875
5602.437332	0.090040	0.189889	19296.867187
5602.438403	0.090055	0.189889	19393.316406
5602.439355	0.090000	0.189889	19478.996094
5602.440222	0.090059	0.189889	19557.076172
5602.441246	0.090084	0.189889	19649.322266
5602.442268	0.089971	0.189889	19741.271484
5602.443160	0.090059	0.189889	19821.603516
5603.525596	1.093565	0.137235	501.946106
5603.526472	1.523357	0.137235	1836.406738
5603.527448	1.506566	0.137235	3306.815430
5603.528501	1.460892	0.137235	4845.134766
5603.529433	1.421235	0.137235	6169.726074
5603.530361	1.384145	0.137235	7454.212891
5603.531232	1.349747	0.137235	8629.842773
5603.532291	1.311954	0.137235	10019.202148
5603.533185	1.280435	0.137235	11163.910156
5603.534065	1.250823	0.137235	12264.633789
5603.535077	1.217853	0.137235	13497.100586
5603.536010	1.186476	0.137235	14604.082031
5603.536933	1.158054	0.137235	15672.965820
5603.537795	1.132148	0.137235	16648.876953
5603.538821	1.107854	0.137235	17785.535156
5603.539724	1.081857	0.137235	18762.451172
5603.540593	0.314733	0.137235	19035.953125
5603.541626	0.089974	0.137235	19128.896484
5603.542573	0.089927	0.137235	19214.056641
5603.543449	0.090007	0.137235	19292.902344
5603.544367	0.089967	0.137235	19375.492187
5603.545420	0.089985	0.137235	19470.246094
5603.546305	0.089919	0.137235	19549.824219
5603.547166	0.089963	0.137235	19627.283203
5603.548205	0.089978	0.137235	19720.769531
5603.549161	0.089945	0.137235	19806.757812
5604.454418	1.133881	0.191509	576.011353
5604.455437	1.526960	0.191509	2131.984131
5604.456327	1.501406	0.191509	3468.235596
5604.457287	1.460398	0.191509	4870.217773
5604.458352	1.415665	0.191509	6377.901367
5604.459288	1.377872	0.191509	7667.589844
5604.460155	1.343870	0.191509	8832.724609
5604.461243	1.305135	0.191509	10252.711914
5604.462240	1.270499	0.191509	11519.399414
5604.463124	1.241093	0.191509	12616.525391
5604.464121	1.208141	0.191509	13821.041992
5604.465175	1.174860	0.191509	15059.343750
5604.466073	1.146196	0.191509	16088.627930
5604.466936	1.122858	0.191509	17057.654297
5604.468025	1.095875	0.191509	18251.062500
5604.469008	0.720051	0.191509	18958.873047
5604.469866	0.099899	0.191509	19044.585937
5604.470859	0.090062	0.191509	19134.017578
5604.471911	0.089993	0.191509	19228.689453
5604.472801	0.090018	0.191509	19308.806641
5604.473672	0.090095	0.191509	19387.279297
5604.474783	0.090051	0.191509	19487.326172
5604.475745	0.089894	0.191509	19573.804687
5604.476614	0.090011	0.191509	19652.023437
5604.477627	0.090048	0.191509	19743.242187
5604.478665	0.089949	0.191509	19836.609375
5605.560270	1.073936	0.135257	476.827423
5605.561377	1.525477	0.135257	2165.530762
5605.562340	1.497898	0.135257	3608.006348
5605.563205	1.459878	0.135257	4870.800781
5605.564230	1.416852	0.135257	6323.074219
5605.565264	1.375818	0.135257	7745.669922
5605.566155	1.341680	0.135257	8941.106445
5605.567085	1.307794	0.135257	10157.355469
5605.568170	1.270353	0.135257	11535.688477
5605.569109	1.238617	0.135257	12698.750000
5605.569982	1.208969	0.135257	13754.179687
5605.571048	1.175515	0.135257	15007.278320
5605.572063	1.144274	0.135257	16168.715820
5605.572955	1.121525	0.135257	17169.115234
5605.573928	1.096278	0.135257	18235.792969
5605.575002	0.631732	0.135257	18914.273437
5605.575917	0.093534	0.135257	18999.857422
5605.576780	0.089919	0.135257	19077.457031
5605.577874	0.090015	0.135257	19175.933594
5605.578856	0.089927	0.135257	19264.242187
5605.579744	0.089963	0.135257	19344.128906
5605.580734	0.090004	0.135257	19433.232422
5605.581775	0.089996	0.135257	19526.917969
5605.582664	0.089956	0.135257	19606.888672
5605.583519	0.089938	0.135257	19683.785156
5605.584617	0.089974	0.135257	19782.576172
5606.489542	1.059869	0.189386	462.103058
5606.490404	1.520501	0.189386	1772.774536
5606.491491	1.503790	0.189386	3407.394531
5606.492410	1.462998	0.189386	4751.889648
5606.493286	1.426392	0.189386	6001.408691
5606.494253	1.387291	0.189386	7342.919434
5606.495267	1.347942	0.189386	8709.732422
5606.496159	1.315316	0.189386	9882.994141
5606.497113	1.282266	0.189386	11106.275391
5606.498171	1.245996	0.189386	12424.539062
5606.499106	1.214791	0.189386	13560.369141
5606.499974	1.186044	0.189386	14589.855469
5606.501061	1.152803	0.189386	15842.952148
5606.502053	1.125648	0.189386	16959.595703
5606.502947	1.103719	0.189386	17946.320312
5606.503943	0.926975	0.189386	18869.587891
5606.504994	0.117858	0.189386	18993.457031
5606.505893	0.089927	0.189386	19074.300781
5606.506751	0.090015	0.189386	19151.533203
5606.507841	0.090132	0.189386	19249.777344
5606.508814	0.090000	0.189386	19337.347656
5606.509680	0.090037	0.189386	19415.320312
5606.510702	0.090037	0.189386	19507.337891
5606.511760	0.089963	0.189386	19602.519531
5606.512641	0.090018	0.189386	19681.826172
5606.513529	0.090026	0.189386	19761.769531
5607.594030	1.155077	0.137139	608.725525
5607.595061	1.526898	0.137139	2182.957520
5607.595952	1.500337	0.137139	3519.757812
5607.596894	1.459347	0.137139	4894.462402
5607.597984	1.414281	0.137139	6436.028809
5607.598919	1.376719	0.137139	7723.260742
5607.599780	1.342950	0.137139	8879.541016
5607.600832	1.305161	0.137139	10252.570312
5607.601852	1.269727	0.137139	11547.691406
5607.602745	1.240071	0.137139	12655.074219
5607.603717	1.207932	0.137139	13829.184570
5607.604779	1.174058	0.137139	15076.033203
5607.605678	1.145812	0.137139	16106.118164
5607.606602	1.122264	0.137139	17143.089844
5607.607472	1.098874	0.137139	18099.111328
5607.608533	0.782714	0.137139	18929.570312
5607.609426	0.103564	0.137139	19022.052734
5607.610301	0.089916	0.137139	19100.728516
5607.611291	0.090004	0.137139	19189.832031
5607.612232	0.090007	0.137139	19274.529297
5607.613149	0.089996	0.137139	19357.056641
5607.614014	0.090000	0.137139	19434.906250
5607.615049	0.089993	0.137139	19528.048828
5607.615927	0.089916	0.137139	19606.994141
5607.616802	0.089938	0.137139	19685.689453
5607.617729	0.089967	0.137139	19769.089844
5608.525754	1.047345	0.184898	438.837524
5608.526651	1.519629	0.184898	1801.944580
5608.527743	1.501681	0.184898	3441.780273
5608.528704	1.460347	0.184898	4845.173340
5608.529577	1.423652	0.184898	6088.021973
5608.530606	1.382142	0.184898	7510.246582
5608.531635	1.343009	0.184898	8892.203125
5608.532526	1.310262	0.184898	10059.646484
5608.533457	1.277886	0.184898	11249.358398
5608.534515	1.242305	0.184898	12563.716797
5608.535467	1.210492	0.184898	13716.105469
5608.536337	1.182217	0.184898	14744.633789
5608.537382	1.150020	0.184898	15946.404297
5608.538394	1.123473	0.184898	17083.359375
5608.539282	1.100541	0.184898	18060.638672
5608.540258	0.854301	0.184898	18894.435547
5608.541301	0.106183	0.184898	19005.183594
5608.542224	0.089897	0.184898	19088.158203
5608.543082	0.090051	0.184898	19165.421875
5608.544163	0.090110	0.184898	19262.830078
5608.545170	0.089985	0.184898	19353.445312
5608.546045	0.089993	0.184898	19432.189453
5608.547012	0.089996	0.184898	19519.216797
5608.548060	0.090029	0.184898	19613.568359
5608.548958	0.090044	0.184898	19694.427734
5608.549826	0.089985	0.184898	19772.535156
5609.629118	1.050227	0.134198	442.145599
5609.630066	1.519992	0.134198	1883.097534
5609.631126	1.501267	0.134198	3474.440674
5609.632055	1.460859	0.134198	4831.579102
5609.632924	1.423806	0.134198	6068.866699
5609.633991	1.381165	0.134198	7542.569336
5609.635002	1.342496	0.134198	8899.833008
5609.635894	1.310226	0.134198	10068.554687
5609.636865	1.276663	0.134198	11308.194336
5609.637921	1.240979	0.134198	12618.667969
5609.638840	1.210415	0.134198	13731.039062
5609.639704	1.181613	0.134198	14751.952148
5609.640805	1.148298	0.134198	16016.228516
5609.641788	1.122378	0.134198	17119.525391
5609.642682	1.099329	0.134198	18102.324219
5609.643685	0.799446	0.134198	18904.167969
5609.644743	0.099580	0.134198	19009.523437
5609.645623	0.089843	0.134198	19088.583984
5609.646491	0.089894	0.134198	19166.611328
5609.647586	0.090026	0.134198	19265.189453
5609.648546	0.089934	0.134198	19351.525391
5609.649405	0.089971	0.134198	19428.810547
5609.650431	0.090033	0.134198	19521.183594
5609.651495	0.090011	0.134198	19616.955078
5609.652368	0.089967	0.134198	19695.496094
5609.653286	0.089938	0.134198	19778.058594
5610.560445	1.056332	0.182618	449.997375
5610.561499	1.525367	0.182618	2057.734619
5610.562373	1.503951	0.182618	3372.187988
5610.563254	1.465788	0.182618	4663.547852
5610.564219	1.425949	0.182618	6039.587891
5610.565178	1.386617	0.182618	7369.354004
5610.566056	1.352560	0.182618	8556.901367
5610.566988	1.318118	0.182618	9785.386719
5610.568055	1.281240	0.182618	11152.469727
5610.568951	1.250445	0.182618	12272.869141
5610.569816	1.221394	0.182618	13329.375000
5610.570862	1.187556	0.182618	14571.558594
5610.571821	1.157552	0.182618	15681.651367
5610.572704	1.131661	0.182618	16680.908203
5610.573604	1.110282	0.182618	17680.162109
5610.574676	1.066868	0.182618	18823.843750
5610.575560	0.252078	0.182618	19046.679687
5610.576415	0.089861	0.182618	19123.509766
5610.577431	0.090011	0.182618	19214.960937
5610.578406	0.089923	0.182618	19302.636719
5610.579274	0.089938	0.182618	19380.703125
5610.580326	0.090018	0.182618	19475.402344
5610.581374	0.089930	0.182618	19569.650391
5610.582260	0.089989	0.182618	19649.380859
5610.583169	0.089952	0.182618	19731.148437
5610.584240	0.089996	0.182618	19827.535156
5611.663897	1.129892	0.134947	572.855469
5611.664901	1.526836	0.134947	2105.798828
5611.665782	1.502267	0.134947	3429.295898
5611.666781	1.459358	0.134947	4887.194336
5611.667837	1.415504	0.134947	6381.966797
5611.668741	1.378649	0.134947	7628.265137
5611.669610	1.343903	0.134947	8796.116211
5611.670720	1.305128	0.134947	10244.808594
5611.671683	1.271979	0.134947	11469.724609
5611.672557	1.242546	0.134947	12555.709961
5611.673578	1.208317	0.134947	13789.401367
5611.674630	1.174878	0.134947	15025.373047
5611.675525	1.147361	0.134947	16052.260742
5611.676449	1.122880	0.134947	17089.800781
5611.677524	1.095128	0.134947	18267.064453
5611.678473	0.727332	0.134947	18957.302734
5611.679340	0.100210	0.134947	19044.185547
5611.680403	0.090033	0.134947	19139.890625
5611.681403	0.089978	0.134947	19229.869141
5611.682281	0.089868	0.134947	19308.773437
5611.683154	0.089938	0.134947	19387.289062
5611.684142	0.090018	0.134947	19476.226562
5611.685087	0.089974	0.134947	19561.251953
5611.685987	0.089927	0.134947	19642.185547
5611.686863	0.090007	0.134947	19721.031250
5611.687876	0.089901	0.134947	19812.101562
5612.594240	1.169561	0.184455	638.580078
5612.595152	1.526616	0.184455	2030.854126
5612.596015	1.504537	0.184455	3329.270020
5612.597099	1.458787	0.184455	4910.594727
5612.598088	1.417343	0.184455	6312.346680
5612.598971	1.381688	0.184455	7532.377441
5612.599968	1.344152	0.184455	8872.496094
5612.601016	1.305824	0.184455	10241.000000
5612.601912	1.274040	0.184455	11382.540039
5612.602784	1.243546	0.184455	12466.912109
5612.603869	1.208364	0.184455	13777.987305
5612.604837	1.177368	0.184455	14917.679687
5612.605728	1.149983	0.184455	15942.314453
5612.606743	1.123374	0.184455	17082.539062
5612.607798	1.096209	0.184455	18239.039062
5612.608698	0.810494	0.184455	18968.484375
5612.609579	0.109043	0.184455	19064.550781
5612.610679	0.089894	0.184455	19163.433594
5612.611635	0.090007	0.184455	19249.480469
5612.612499	0.089923	0.184455	19327.173828
5612.613536	0.090018	0.184455	19420.523437
5612.614565	0.090051	0.184455	19513.185547
5612.615473	0.090007	0.184455	19594.912109
5612.616421	0.089985	0.184455	19680.218750
5612.617456	0.089971	0.184455	19773.337891
5612.618383	0.089971	0.184455	19856.740234
5613.698508	1.074390	0.133505	469.508301
5613.699377	1.521742	0.133505	1791.901978
5613.700381	1.506449	0.133505	3304.376709
5613.701378	1.462932	0.133505	4762.919922
5613.702251	1.426088	0.133505	6007.894531
5613.703238	1.386515	0.133505	7376.384766
5613.704292	1.345950	0.133505	8795.015625
5613.705198	1.312496	0.133505	9984.137695
5613.706065	1.280870	0.133505	11094.652344
5613.707165	1.244919	0.133505	12464.063477
5613.708128	1.213037	0.133505	13632.218750
5613.708998	1.185091	0.133505	14663.248047
5613.710029	1.152766	0.133505	15851.750000
5613.711079	1.124593	0.133505	17032.572266
5613.711968	1.101760	0.133505	18012.037109
5613.712894	0.921650	0.133505	18865.484375
5613.713970	0.114467	0.133505	18988.650391
5613.714922	0.089817	0.133505	19074.156250
5613.715784	0.089960	0.133505	19151.701172
5613.716837	0.089982	0.133505	19246.451172
5613.717835	0.089908	0.133505	19336.179687
5613.718712	0.089919	0.133505	19415.039062
5613.719670	0.089916	0.133505	19501.177734
5613.720714	0.090026	0.133505	19595.164062
5613.721646	0.090040	0.133505	19679.082031
5613.722510	0.090011	0.133505	19756.851562
5614.629959	1.188636	0.180850	662.070496
5614.631007	1.526832	0.180850	2262.190674
5614.631903	1.497729	0.180850	3604.156250
5614.632785	1.459530	0.180850	4891.461914
5614.633719	1.420488	0.180850	6218.197754
5614.634718	1.380765	0.180850	7597.582031
5614.635641	1.345400	0.180850	8839.386719
5614.636509	1.313306	0.180850	9979.335937
5614.637547	1.277955	0.180850	11305.853516
5614.638428	1.247179	0.180850	12404.618164
5614.639309	1.217622	0.180850	13477.343750
5614.640185	1.187743	0.180850	14517.806641
5614.641253	1.155725	0.180850	15752.121094
5614.642143	1.130164	0.180850	16757.966797
5614.643010	1.108747	0.180850	17719.250000
5614.644123	1.025402	0.180850	18860.521484
5614.645040	0.179366	0.180850	19025.000000
5614.645915	0.089813	0.180850	19103.585937
5614.646917	0.089949	0.180850	19193.714844
5614.647896	0.089923	0.180850	19281.750000
5614.648781	0.089982	0.180850	19361.384766
5614.649637	0.089949	0.180850	19438.380859
5614.650724	0.090007	0.180850	19536.218750
5614.651625	0.089868	0.180850	19617.189453
5614.652491	0.089971	0.180850	19695.103516
5614.653469	0.090088	0.180850	19783.208984
5615.731656	1.068505	0.134391	460.525482
5615.732532	1.520804	0.134391	1792.750122
5615.733627	1.501915	0.134391	3437.347168
5615.734597	1.460288	0.134391	4853.826660
5615.735475	1.423510	0.134391	6103.667969
5615.736515	1.381359	0.134391	7540.280762
5615.737556	1.341932	0.134391	8937.232422
5615.738447	1.309314	0.134391	10103.831055
5615.739374	1.276857	0.134391	11287.477539
5615.740457	1.240653	0.134391	12631.104492
5615.741410	1.208481	0.134391	13782.787109
5615.742277	1.180690	0.134391	14806.445312
5615.743351	1.147753	0.134391	16039.131836
5615.744358	1.121858	0.134391	17168.843750
5615.745252	1.098171	0.134391	18150.609375
5615.746215	0.795110	0.134391	18916.300781
5615.747273	0.098529	0.134391	19020.544922
5615.748189	0.090004	0.134391	19102.988281
5615.749052	0.090015	0.134391	19180.671875
5615.750142	0.090092	0.134391	19278.871094
5615.751130	0.089985	0.134391	19367.777344
5615.752007	0.090073	0.134391	19446.771484
5615.753004	0.090037	0.134391	19536.537109
5615.754060	0.089996	0.134391	19631.574219
5615.754949	0.089978	0.134391	19711.564453
5615.755807	0.090066	0.134391	19788.841797
5616.666626	1.112706	0.180338	550.789612
5616.667625	1.526473	0.180338	2075.736328
5616.668516	1.502809	0.180338	3414.739258
5616.669497	1.460933	0.180338	4847.914062
5616.670553	1.416559	0.180338	6343.799805
5616.671474	1.379363	0.180338	7614.192871
5616.672340	1.345104	0.180338	8779.052734
5616.673425	1.306626	0.180338	10196.742187
5616.674422	1.271887	0.180338	11464.813477
5616.675299	1.242561	0.180338	12554.539062
5616.676284	1.209961	0.180338	13746.350586
5616.677336	1.176665	0.180338	14984.202148
5616.678230	1.148445	0.180338	16010.912109
5616.679094	1.124114	0.180338	16982.146484
5616.680204	1.096970	0.180338	18199.783203
5616.681177	0.775961	0.180338	18954.792969
5616.682032	0.105688	0.180338	19045.156250
5616.683085	0.090026	0.180338	19139.953125
5616.684131	0.090004	0.180338	19234.097656
5616.685009	0.090004	0.180338	19313.121094
5616.685932	0.090059	0.180338	19396.246094
5616.686985	0.090070	0.180338	19491.089844
5616.687921	0.089960	0.180338	19575.292969
5616.688790	0.089978	0.180338	19653.484375
5616.689836	0.090081	0.180338	19747.708984
5616.690857	0.090015	0.180338	19839.613281
5617.765303	1.048792	0.132800	439.443665
5617.766213	1.519812	0.132800	1822.472656
5617.767291	1.502446	0.132800	3442.109863
5617.768184	1.463071	0.132800	4748.632812
5617.769055	1.426633	0.132800	5991.230469
5617.770071	1.385588	0.132800	7398.988281
5617.771045	1.348220	0.132800	8712.154297
5617.771923	1.315924	0.132800	9867.535156
5617.772806	1.283807	0.132800	11001.136719
5617.773902	1.248157	0.132800	12369.116211
5617.774798	1.217553	0.132800	13460.042969
5617.775678	1.187875	0.132800	14505.373047
5617.776758	1.155516	0.132800	15753.331055
5617.777719	1.128431	0.132800	16837.753906
5617.778586	1.107462	0.132800	17797.923828
5617.779643	0.979482	0.132800	18833.236328
5617.780695	0.135103	0.132800	18975.363281
5617.781576	0.089890	0.132800	19054.556641
5617.782509	0.090022	0.132800	19138.546875
5617.783587	0.089963	0.132800	19235.527344
5617.784526	0.090048	0.132800	19320.082031
5617.785384	0.090004	0.132800	19397.304687
5617.786428	0.090088	0.132800	19491.355469
5617.787454	0.089960	0.132800	19583.654297
5617.788346	0.089971	0.132800	19663.908203
5617.789293	0.090040	0.132800	19749.175781
5618.703376	1.128292	0.176423	569.787537
5618.704328	1.526693	0.176423	2023.199463
5618.705192	1.505479	0.176423	3323.932861
5618.706209	1.461405	0.176423	4810.181641
5618.707253	1.418254	0.176423	6290.839355
5618.708146	1.382040	0.176423	7525.000977
5618.709027	1.347957	0.176423	8712.550781
5618.709955	1.313961	0.176423	9931.906250
5618.710955	1.279211	0.176423	11211.117187
5618.711878	1.248204	0.176423	12363.209961
5618.712745	1.218907	0.176423	13420.002930
5618.713801	1.185011	0.176423	14671.375000
5618.714699	1.156875	0.176423	15710.249023
5618.715566	1.131130	0.176423	16690.939453
5618.716431	1.109821	0.176423	17650.933594
5618.717485	1.071951	0.176423	18780.769531
5618.718386	0.259413	0.176423	19014.500000
5618.719265	0.089901	0.176423	19093.523437
5618.720243	0.090029	0.176423	19181.572266
5618.721180	0.089974	0.176423	19265.878906
5618.722058	0.090084	0.176423	19344.972656
5618.723026	0.090066	0.176423	19432.156250
5618.724035	0.090015	0.176423	19522.980469
5618.724910	0.089945	0.176423	19601.681641
5618.725766	0.089974	0.176423	19678.699219
5618.726825	0.090066	0.176423	19774.078125
5619.798453	1.046711	0.132256	440.665527
5619.799485	1.524441	0.132256	2013.888550
5619.800520	1.498704	0.132256	3565.046875
5619.801411	1.459962	0.132256	4865.873047
5619.802365	1.420360	0.132256	6220.896484
5619.803436	1.377037	0.132256	7695.703125
5619.804372	1.341332	0.132256	8951.189453
5619.805238	1.309211	0.132256	10084.966797
5619.806324	1.272078	0.132256	11466.443359
5619.807321	1.238525	0.132256	12701.252930
5619.808210	1.208972	0.132256	13776.029297
5619.809191	1.178024	0.132256	14931.670898
5619.810250	1.145314	0.132256	16144.558594
5619.811164	1.121719	0.132256	17169.808594
5619.812029	1.098230	0.132256	18119.777344
5619.813129	0.702971	0.132256	18893.044922
5619.814129	0.094105	0.132256	18987.150391
5619.815011	0.089897	0.132256	19066.439453
5619.816026	0.090037	0.132256	19157.826172
5619.817066	0.090004	0.132256	19251.429687
5619.817937	0.089916	0.132256	19329.746094
5619.818802	0.089967	0.132256	19407.568359
5619.819905	0.089956	0.132256	19506.789062
5619.820866	0.089952	0.132256	19593.232422
5619.821732	0.089894	0.132256	19671.080078
5619.822742	0.090070	0.132256	19762.050781
5620.739600	1.126564	0.174602	571.167847
5620.740592	1.526825	0.174602	2085.778320
5620.741483	1.502651	0.174602	3424.640625
5620.742466	1.460541	0.174602	4860.352051
5620.743515	1.416943	0.174602	6346.725586
5620.744428	1.379550	0.174602	7606.254395
5620.745295	1.345192	0.174602	8772.535156
5620.746379	1.306985	0.174602	10189.306641
5620.747388	1.271583	0.174602	11472.333984
5620.748274	1.242239	0.174602	12572.957031
5620.749283	1.208873	0.174602	13792.709961
5620.750345	1.175226	0.174602	15040.799805
5620.751229	1.146962	0.174602	16054.713867
5620.752145	1.122598	0.174602	17083.013672
5620.753230	1.095139	0.174602	18271.240234
5620.754182	0.728540	0.174602	18964.810547
5620.755041	0.100862	0.174602	19051.451172
5620.756074	0.090015	0.174602	19144.435547
5620.757095	0.089945	0.174602	19236.269531
5620.757982	0.090004	0.174602	19316.103516
5620.758913	0.089960	0.174602	19399.855469
5620.759978	0.089963	0.174602	19495.666016
5620.760911	0.089945	0.174602	19579.583984
5620.761774	0.089912	0.174602	19657.177734
5620.762828	0.090011	0.174602	19752.048828
5620.763831	0.089971	0.174602	19842.289062
5621.831636	1.068303	0.130742	467.916809
5621.832499	1.521280	0.130742	1780.781738
5621.833533	1.505793	0.130742	3337.772217
5621.834419	1.466667	0.130742	4637.239258
5621.835280	1.429790	0.130742	5868.288574
5621.836308	1.388075	0.130742	7295.229492
5621.837285	1.350568	0.130742	8614.734375
5621.838167	1.317909	0.130742	9777.129883
5621.839041	1.285704	0.130742	10900.835937
5621.840153	1.249757	0.130742	12290.565430
5621.841051	1.219490	0.130742	13385.666992
5621.841929	1.191013	0.130742	14431.376953
5621.842930	1.159834	0.130742	15592.371094
5621.843897	1.130812	0.130742	16685.865234
5621.844828	1.109319	0.130742	17718.640625
5621.845696	1.078282	0.130742	18654.589844
5621.846801	0.231204	0.130742	18910.070312
5621.847693	0.089875	0.130742	18990.238281
5621.848549	0.089963	0.130742	19067.246094
5621.849634	0.090103	0.130742	19165.007812
5621.850599	0.089854	0.130742	19251.716797
5621.851471	0.089971	0.130742	19330.171875
5621.852483	0.090062	0.130742	19421.314453
5621.853530	0.089996	0.130742	19515.541016
5621.854400	0.089923	0.130742	19593.773437
5621.855282	0.089941	0.130742	19673.101562
5622.775269	1.080769	0.175162	502.557617
5622.776344	1.525404	0.175162	2142.366943
5622.777290	1.498147	0.175162	3559.613770
5622.778209	1.458549	0.175162	4900.020020
5622.779084	1.421818	0.175162	6144.110352
5622.780114	1.381153	0.175162	7566.698242
5622.781012	1.346125	0.175162	8775.518555
5622.781891	1.313998	0.175162	9930.522461
5622.782795	1.281746	0.175162	11089.220703
5622.783822	1.247377	0.175162	12370.276367
5622.784717	1.217553	0.175162	13459.986328
5622.785593	1.189021	0.175162	14501.568359
5622.786599	1.158318	0.175162	15666.835937
5622.787505	1.131178	0.175162	16691.683594
5622.788375	1.111018	0.175162	17658.269531
5622.789362	1.071478	0.175162	18715.818359
5622.790374	0.226501	0.175162	18945.037109
5622.791260	0.089791	0.175162	19024.591797
5622.792120	0.089985	0.175162	19101.978516
5622.793204	0.089985	0.175162	19199.523437
5622.794130	0.089861	0.175162	19282.734375
5622.795009	0.089927	0.175162	19361.779297
5622.795966	0.090007	0.175162	19447.916016
5622.796966	0.089905	0.175162	19537.820312
5622.797851	0.089952	0.175162	19617.427734
5622.798716	0.089945	0.175162	19695.230469
5623.866374	1.115812	0.127438	560.137451
5623.867299	1.526114	0.127438	1971.793335
5623.868160	1.506207	0.127438	3268.637695
5623.869238	1.460526	0.127438	4843.084961
5623.870253	1.418031	0.127438	6282.386230
5623.871145	1.382106	0.127438	7515.224609
5623.872128	1.344994	0.127438	8837.353516
5623.873185	1.306388	0.127438	10218.205078
5623.874100	1.274055	0.127438	11383.965820
5623.874964	1.243953	0.127438	12458.741211
5623.876057	1.208848	0.127438	13780.011719
5623.877050	1.176790	0.127438	14948.563477
5623.877929	1.149683	0.127438	15959.134766
5623.878930	1.123583	0.127438	17083.841797
5623.879977	1.096666	0.127438	18232.050781
5623.880865	0.821602	0.127438	18961.632812
5623.881747	0.111790	0.127438	19060.230469
5623.882826	0.089967	0.127438	19157.304687
5623.883788	0.090037	0.127438	19243.919922
5623.884657	0.090004	0.127438	19322.132812
5623.885673	0.090066	0.127438	19413.640625
5623.886715	0.089978	0.127438	19507.398437
5623.887602	0.089993	0.127438	19587.222656
5623.888512	0.090015	0.127438	19669.136719
5623.889585	0.089945	0.127438	19765.648437
5623.890528	0.089941	0.127438	19850.462891
5624.811449	1.053644	0.172253	442.530396
5624.812489	1.524313	0.172253	2027.815674
5624.813496	1.499041	0.172253	3537.349609
5624.814395	1.460065	0.172253	4849.947754
5624.815377	1.419456	0.172253	6243.853027
5624.816430	1.377440	0.172253	7694.297363
5624.817344	1.341914	0.172253	8920.806641
5624.818211	1.309281	0.172253	10055.953125
5624.819310	1.272235	0.172253	11454.139648
5624.820306	1.238467	0.172253	12687.652344
5624.821193	1.209379	0.172253	13760.371094
5624.822187	1.177691	0.172253	14930.995117
5624.823239	1.145592	0.172253	16136.158203
5624.824125	1.122286	0.172253	17130.503906
5624.825016	1.098625	0.172253	18109.378906
5624.826099	0.728804	0.172253	18898.673828
5624.827048	0.097192	0.172253	18990.910156
5624.827904	0.089821	0.172253	19067.796875
5624.828923	0.089978	0.172253	19159.484375
5624.829954	0.089982	0.172253	19252.255859
5624.830842	0.089919	0.172253	19332.103516
5624.831760	0.089982	0.172253	19414.707031
5624.832822	0.090015	0.172253	19510.302734
5624.833776	0.089930	0.172253	19596.095703
5624.834640	0.089960	0.172253	19673.820312
5624.835671	0.090026	0.172253	19766.636719
5625.897916	1.058738	0.129589	449.963531
5625.898952	1.524276	0.129589	2029.113525
5625.899990	1.497989	0.129589	3584.026367
5625.900881	1.459255	0.129589	4884.222656
5625.901758	1.422528	0.129589	6131.779785
5625.902721	1.384336	0.129589	7464.895508
5625.903690	1.346503	0.129589	8769.656250
5625.904616	1.312954	0.129589	9985.451172
5625.905484	1.282181	0.129589	11098.384766
5625.906514	1.248007	0.129589	12383.832031
5625.907397	1.218021	0.129589	13459.344727
5625.908274	1.189556	0.129589	14502.584961
5625.909191	1.160365	0.129589	15566.639648
5625.910197	1.131112	0.129589	16704.539062
5625.911090	1.110183	0.129589	17695.933594
5625.911963	1.080040	0.129589	18638.808594
5625.913086	0.238370	0.129589	18906.498047
5625.913978	0.089817	0.129589	18986.615234
5625.914853	0.089996	0.129589	19065.361328
5625.915849	0.090044	0.129589	19155.044922
5625.916848	0.089989	0.129589	19244.943359
5625.917736	0.089941	0.129589	19324.810547
5625.918597	0.089978	0.129589	19402.281250
5625.919670	0.089971	0.129589	19498.820312
5625.920565	0.089952	0.129589	19579.328125
5625.921439	0.090018	0.129589	19658.003906
5626.848241	1.080685	0.169877	517.648010
5626.849316	1.525591	0.169877	2157.658203
5626.850270	1.497385	0.169877	3586.163574
5626.851139	1.459420	0.169877	4854.399902
5626.852170	1.416178	0.169877	6314.479492
5626.853209	1.375049	0.169877	7743.155273
5626.854106	1.340903	0.169877	8945.945312
5626.855072	1.306458	0.169877	10207.983398
5626.856122	1.269404	0.169877	11540.857422
5626.857059	1.237914	0.169877	12700.783203
5626.857985	1.207288	0.169877	13818.731445
5626.858850	1.178657	0.169877	14838.269531
5626.859894	1.147266	0.169877	16036.014648
5626.860774	1.124180	0.169877	17025.292969
5626.861648	1.101965	0.169877	17988.410156
5626.862625	0.901157	0.169877	18868.839844
5626.863581	0.123878	0.169877	18987.267578
5626.864484	0.089868	0.169877	19068.417969
5626.865363	0.089934	0.169877	19147.470703
5626.866383	0.089960	0.169877	19239.230469
5626.867298	0.089854	0.169877	19321.447266
5626.868167	0.089916	0.169877	19399.583984
5626.869193	0.090062	0.169877	19491.988281
5626.870155	0.089864	0.169877	19578.437500
5626.871029	0.089930	0.169877	19657.037109
5626.871905	0.090011	0.169877	19735.886719
5627.932675	1.116284	0.126363	551.444336
5627.933592	1.525624	0.126363	1950.441406
5627.934462	1.506277	0.126363	3260.902344
5627.935546	1.460274	0.126363	4843.838867
5627.936549	1.418126	0.126363	6266.219727
5627.937440	1.382267	0.126363	7497.819336
5627.938417	1.345236	0.126363	8812.114258
5627.939474	1.306948	0.126363	10193.558594
5627.940384	1.274813	0.126363	11353.638672
5627.941248	1.244432	0.126363	12428.828125
5627.942358	1.208873	0.126363	13770.677734
5627.943331	1.178002	0.126363	14916.873047
5627.944207	1.150459	0.126363	15924.674805
5627.945297	1.122052	0.126363	17147.710937
5627.946339	1.094645	0.126363	18288.330078
5627.947241	0.758881	0.126363	18972.839844
5627.948168	0.103572	0.126363	19068.851562
5627.949214	0.089982	0.126363	19162.972656
5627.950154	0.090037	0.126363	19247.607422
5627.951018	0.090029	0.126363	19325.392578
5627.952066	0.090135	0.126363	19419.855469
5627.953079	0.090018	0.126363	19511.044922
5627.953957	0.090000	0.126363	19590.064453
5627.954928	0.090135	0.126363	19677.585937
5627.955981	0.090018	0.126363	19772.375000
5627.956903	0.090004	0.126363	19855.357422
5628.885061	1.160138	0.162694	653.157715
5628.886132	1.525880	0.162694	2287.375244
5628.887023	1.496704	0.162694	3620.938477
5628.887894	1.457135	0.162694	4890.103027
5628.888997	1.413307	0.162694	6448.980469
5628.889946	1.375170	0.162694	7754.016602
5628.890817	1.341731	0.162694	8922.664062
5628.891828	1.305161	0.162694	10242.181641
5628.892882	1.268767	0.162694	11579.461914
5628.893780	1.238708	0.162694	12691.822266
5628.894690	1.207628	0.162694	13790.763672
5628.895767	1.173820	0.162694	15054.966797
5628.896718	1.144794	0.162694	16143.666016
5628.897585	1.122356	0.162694	17116.748047
5628.898635	1.094978	0.162694	18266.474609
5628.899667	0.640280	0.162694	18927.242187
5628.900556	0.094585	0.162694	19011.328125
5628.901522	0.089967	0.162694	19098.236328
5628.902572	0.090000	0.162694	19192.736328
5628.903506	0.089945	0.162694	19276.744141
5628.904369	0.089952	0.162694	19354.373047
5628.905445	0.090037	0.162694	19451.251953
5628.906447	0.089996	0.162694	19541.427734
5628.907330	0.089941	0.162694	19620.845703
5628.908321	0.090084	0.162694	19710.119141
5628.909366	0.089967	0.162694	19804.134766
5629.966305	1.092609	0.126798	500.414734
5629.967178	1.522617	0.126798	1829.659668
5629.968175	1.505900	0.126798	3331.041504
5629.969233	1.460240	0.126798	4875.976074
5629.970143	1.421627	0.126798	6169.656738
5629.971004	1.385471	0.126798	7362.547363
5629.972077	1.344763	0.126798	8805.478516
5629.973083	1.308395	0.126798	10121.723633
5629.973972	1.277384	0.126798	11257.318359
5629.974961	1.244473	0.126798	12488.101562
5629.976009	1.209778	0.126798	13755.949219
5629.976908	1.180671	0.126798	14817.373047
5629.977818	1.152506	0.126798	15866.153320
5629.978703	1.127882	0.126798	16864.328125
5629.979720	1.102383	0.126798	17985.451172
5629.980650	0.980662	0.126798	18897.466797
5629.981535	0.159540	0.126798	19038.660156
5629.982525	0.089927	0.126798	19127.687500
5629.983437	0.089978	0.126798	19209.748047
5629.984353	0.090066	0.126798	19292.248047
5629.985208	0.090051	0.126798	19369.242187
5629.986239	0.090015	0.126798	19462.046875
5629.987115	0.089971	0.126798	19540.861328
5629.987991	0.090033	0.126798	19619.730469
5629.988934	0.090011	0.126798	19704.611328
5629.989884	0.090037	0.126798	19790.146484
5630.920129	1.065403	0.162831	458.123169
5630.920997	1.520178	0.162831	1777.637817
5630.922095	1.502241	0.162831	3427.098633
5630.923061	1.460647	0.162831	4838.083496
5630.923936	1.423601	0.162831	6083.734375
5630.925041	1.379315	0.162831	7607.877930
5630.926073	1.339936	0.162831	8990.692383
5630.926973	1.307227	0.162831	10167.196289
5630.927925	1.274692	0.162831	11380.703125
5630.928980	1.238708	0.162831	12687.541016
5630.929917	1.207295	0.162831	13818.776367
5630.930782	1.179320	0.162831	14838.888672
5630.931858	1.146742	0.162831	16072.783203
5630.932855	1.121030	0.162831	17190.451172
5630.933738	1.097813	0.162831	18159.820312
5630.934732	0.761162	0.162831	18916.416016
5630.935781	0.096434	0.162831	19017.576172
5630.936686	0.089930	0.162831	19098.962891
5630.937613	0.089996	0.162831	19182.388672
5630.938474	0.090022	0.162831	19259.898437
5630.939492	0.089967	0.162831	19351.484375
5630.940385	0.089974	0.162831	19431.832031
5630.941258	0.089949	0.162831	19510.357422
5630.942226	0.090018	0.162831	19597.496094
5630.943177	0.089886	0.162831	19682.978516
5630.944113	0.089949	0.162831	19767.169922
5631.999946	1.073357	0.124486	470.130371
5632.000814	1.521431	0.124486	1790.732178
5632.001829	1.506017	0.124486	3319.339355
5632.002828	1.462376	0.124486	4780.252441
5632.003713	1.425011	0.124486	6041.387207
5632.004577	1.388602	0.124486	7241.139648
5632.005665	1.347803	0.124486	8707.548828
5632.006582	1.314294	0.124486	9912.756836
5632.007457	1.282518	0.124486	11034.960937
5632.008547	1.246377	0.124486	12393.511719
5632.009542	1.213074	0.124486	13600.519531
5632.010437	1.184531	0.124486	14660.674805
5632.011429	1.153762	0.124486	15805.207031
5632.012499	1.125194	0.124486	17009.164062
5632.013390	1.102386	0.124486	17991.390625
5632.014273	0.944890	0.124486	18825.728516
5632.015378	0.120579	0.124486	18958.968750
5632.016332	0.089872	0.124486	19044.707031
5632.017203	0.090018	0.124486	19123.113281
5632.018234	0.090114	0.124486	19216.019531
5632.019262	0.089993	0.124486	19308.531250
5632.020141	0.090015	0.124486	19387.654297
5632.021065	0.090084	0.124486	19470.892578
5632.022122	0.090121	0.124486	19566.150391
5632.023062	0.090007	0.124486	19650.757812
5632.023924	0.090022	0.124486	19728.357422
5632.955415	1.113699	0.162457	574.668518
5632.956363	1.526378	0.162457	2021.675049
5632.957244	1.504325	0.162457	3346.985352
5632.958201	1.463309	0.162457	4747.372070
5632.959228	1.420203	0.162457	6205.919922
5632.960112	1.384373	0.162457	7429.705078
5632.960975	1.350366	0.162457	8595.071289
5632.962057	1.311639	0.162457	10014.265625
5632.962985	1.278538	0.162457	11200.748047
5632.963868	1.248853	0.162457	12303.484375
5632.964808	1.217249	0.162457	13447.698242
5632.965860	1.183561	0.162457	14692.803711
5632.966765	1.155465	0.162457	15738.500000
5632.967635	1.130105	0.162457	16721.691406
5632.968696	1.104500	0.162457	17893.566406
5632.969646	1.023248	0.162457	18865.652344
5632.970523	0.188383	0.162457	19030.863281
5632.971569	0.090026	0.162457	19125.029297
5632.972583	0.090007	0.162457	19216.296875
5632.973482	0.089971	0.162457	19297.179687
5632.974425	0.090059	0.162457	19382.105469
5632.975483	0.089967	0.162457	19477.291016
5632.976402	0.090055	0.162457	19560.050781
5632.977260	0.089993	0.162457	19637.263672
5632.978312	0.090062	0.162457	19732.009766
5632.979325	0.090081	0.162457	19823.261719
5634.034721	1.146097	0.125569	599.408936
5634.035757	1.526594	0.125569	2180.960449
5634.036652	1.499652	0.125569	3523.149170
5634.037596	1.459255	0.125569	4900.686035
5634.038652	1.414790	0.125569	6394.704102
5634.039603	1.376748	0.125569	7703.991699
5634.040472	1.343177	0.125569	8871.212891
5634.041532	1.305366	0.125569	10254.901367
5634.042543	1.270012	0.125569	11538.883789
5634.043423	1.240569	0.125569	12630.583984
5634.044416	1.208394	0.125569	13830.518555
5634.045465	1.174435	0.125569	15062.500977
5634.046381	1.145885	0.125569	16112.131836
5634.047244	1.122704	0.125569	17081.025391
5634.048320	1.095637	0.125569	18259.931641
5634.049326	0.678918	0.125569	18942.923828
5634.050201	0.096998	0.125569	19027.796875
5634.051184	0.090055	0.125569	19116.320312
5634.052226	0.089996	0.125569	19210.095703
5634.053119	0.089949	0.125569	19290.419922
5634.053982	0.089941	0.125569	19368.039062
5634.055072	0.090062	0.125569	19466.207031
5634.056057	0.089912	0.125569	19554.769531
5634.056921	0.089978	0.125569	19632.509766
5634.057981	0.090077	0.125569	19727.992187
5634.059025	0.089908	0.125569	19821.857422
5634.990520	1.064575	0.160156	452.444458
5634.991621	1.524668	0.160156	2131.104004
5634.992622	1.496407	0.160156	3629.007812
5634.993504	1.458193	0.160156	4915.134277
5634.994528	1.416251	0.160156	6365.375488
5634.995569	1.374869	0.160156	7796.614258
5634.996449	1.340731	0.160156	8976.458008
5634.997339	1.307150	0.160156	10139.821289
5634.998428	1.269785	0.160156	11522.617187
5634.999390	1.238350	0.160156	12713.909180
5635.000261	1.209042	0.160156	13766.984375
5635.001286	1.176178	0.160156	14972.566406
5635.002324	1.144321	0.160156	16160.372070
5635.003222	1.121689	0.160156	17167.648437
5635.004176	1.096593	0.160156	18213.798828
5635.005236	0.659641	0.160156	18913.017578
5635.006173	0.094222	0.160156	19001.304687
5635.007039	0.089861	0.160156	19079.125000
5635.008094	0.090084	0.160156	19174.164062
5635.009092	0.090084	0.160156	19264.068359
5635.009979	0.089956	0.160156	19343.859375
5635.010935	0.090092	0.160156	19429.986328
5635.011982	0.090044	0.160156	19524.261719
5635.012903	0.090062	0.160156	19607.208984
5635.013766	0.090018	0.160156	19684.894531
5635.014836	0.090084	0.160156	19781.285156
5636.069325	1.067523	0.121440	468.642700
5636.070197	1.521434	0.121440	1795.333374
5636.071133	1.508309	0.121440	3207.110840
5636.072194	1.462998	0.121440	4759.351562
5636.073083	1.425406	0.121440	6026.538086
5636.073949	1.389807	0.121440	7230.111328
5636.075006	1.349571	0.121440	8656.608398
5636.075951	1.314664	0.121440	9898.965820
5636.076818	1.284152	0.121440	11012.325195
5636.077858	1.249222	0.121440	12311.516602
5636.078889	1.214824	0.121440	13564.000000
5636.079774	1.186025	0.121440	14613.632812
5636.080726	1.156348	0.121440	15714.475586
5636.081811	1.126619	0.121440	16936.857422
5636.082743	1.103174	0.121440	17965.015625
5636.083602	1.007036	0.121440	18830.060547
5636.084651	0.147828	0.121440	18985.132812
5636.085649	0.089879	0.121440	19074.832031
5636.086540	0.089971	0.121440	19154.996094
5636.087506	0.090114	0.121440	19242.044922
5636.088551	0.089993	0.121440	19336.087891
5636.089471	0.090048	0.121440	19418.931641
5636.090333	0.089941	0.121440	19496.460937
5636.091399	0.090103	0.121440	19592.509766
5636.092403	0.090059	0.121440	19682.927734
5636.093289	0.089993	0.121440	19762.662109
5637.024789	1.123832	0.162477	563.039795
5637.025760	1.526532	0.162477	2045.302246
5637.026636	1.503721	0.162477	3362.561523
5637.027701	1.457871	0.162477	4915.194336
5637.028737	1.414783	0.162477	6380.909180
5637.029629	1.378839	0.162477	7610.833984
5637.030568	1.342972	0.162477	8871.884766
5637.031653	1.303744	0.162477	10286.447266
5637.032592	1.271100	0.162477	11480.009766
5637.033468	1.241393	0.162477	12567.469727
5637.034517	1.206530	0.162477	13833.119141
5637.035539	1.174208	0.162477	15033.159180
5637.036437	1.146215	0.162477	16062.459961
5637.037392	1.122114	0.162477	17134.078125
5637.038447	1.094264	0.162477	18288.527344
5637.039376	0.722845	0.162477	18960.050781
5637.040235	0.100430	0.162477	19046.320312
5637.041313	0.090011	0.162477	19143.351562
5637.042314	0.089978	0.162477	19233.419922
5637.043196	0.089949	0.162477	19312.753906
5637.044184	0.090026	0.162477	19401.699219
5637.045230	0.089971	0.162477	19495.808594
5637.046132	0.090015	0.162477	19577.001953
5637.046988	0.089982	0.162477	19654.025391
5637.048068	0.090106	0.162477	19751.339844
5637.049048	0.090004	0.162477	19839.542969
5638.104120	1.143234	0.121472	631.065002
5638.105192	1.526133	0.121472	2267.079346
5638.106076	1.497246	0.121472	3590.645020
5638.106943	1.457640	0.121472	4854.419434
5638.108056	1.412948	0.121472	6427.030273
5638.109033	1.374368	0.121472	7769.787598
5638.109905	1.341248	0.121472	8939.355469
5638.110926	1.304249	0.121472	10270.994141
5638.111959	1.268566	0.121472	11581.422852
5638.112851	1.238690	0.121472	12686.333984
5638.113730	1.209320	0.121472	13749.326172
5638.114659	1.179467	0.121472	14845.050781
5638.115661	1.148339	0.121472	15995.686523
5638.116578	1.124095	0.121472	17026.482422
5638.117461	1.101749	0.121472	17999.326172
5638.118477	0.888344	0.121472	18901.882812
5638.119392	0.122780	0.121472	19014.226562
5638.120309	0.089890	0.121472	19096.656250
5638.121170	0.090055	0.121472	19174.193359
5638.122175	0.090011	0.121472	19264.654297
5638.123077	0.089971	0.121472	19345.808594
5638.123950	0.090059	0.121472	19424.429687
5638.124917	0.090044	0.121472	19511.501953
5638.125860	0.089956	0.121472	19596.330078
5638.126735	0.090026	0.121472	19675.101562
5638.127682	0.090070	0.121472	19760.398437
5639.060514	1.107587	0.158819	584.805725
5639.061571	1.525679	0.158819	2197.448242
5639.062492	1.497422	0.158819	3576.573730
5639.063354	1.458959	0.158819	4834.196289
5639.064433	1.415259	0.158819	6361.260742
5639.065434	1.375038	0.158819	7737.673828
5639.066307	1.341540	0.158819	8908.838867
5639.067291	1.306051	0.158819	10193.993164
5639.068345	1.269544	0.158819	11532.091797
5639.069248	1.238525	0.158819	12650.480469
5639.070174	1.208243	0.158819	13769.313477
5639.071046	1.179298	0.158819	14797.661133
5639.072092	1.147903	0.158819	15998.367187
5639.072992	1.123942	0.158819	17009.914062
5639.073871	1.102119	0.158819	17978.675781
5639.074868	0.895269	0.158819	18871.257812
5639.075813	0.122981	0.158819	18987.474609
5639.076733	0.089901	0.158819	19070.183594
5639.077597	0.089989	0.158819	19147.933594
5639.078628	0.089993	0.158819	19240.716797
5639.079499	0.089919	0.158819	19319.037109
5639.080372	0.089897	0.158819	19397.517578
5639.081318	0.090011	0.158819	19482.667969
5639.082287	0.090015	0.158819	19569.892578
5639.083164	0.089974	0.158819	19648.800781
5639.084053	0.090048	0.158819	19728.853516
5640.137803	1.180148	0.123474	660.882690
5640.138780	1.526968	0.123474	2152.730225
5640.139650	1.501472	0.123474	3459.011230
5640.140680	1.457644	0.123474	4960.384766
5640.141722	1.414424	0.123474	6434.214355
5640.142612	1.378000	0.123474	7660.634766
5640.143506	1.342892	0.123474	8861.179687
5640.144576	1.304777	0.123474	10257.291016
5640.145538	1.271506	0.123474	11480.480469
5640.146409	1.241986	0.123474	12562.250000
5640.147439	1.207731	0.123474	13806.212891
5640.148475	1.174849	0.123474	15023.356445
5640.149367	1.147606	0.123474	16047.021484
5640.150311	1.122883	0.123474	17107.023437
5640.151365	1.095278	0.123474	18261.447266
5640.152311	0.745327	0.123474	18966.527344
5640.153177	0.101854	0.123474	19054.732422
5640.154244	0.090033	0.123474	19150.796875
5640.155258	0.090059	0.123474	19242.117187
5640.156151	0.090007	0.123474	19322.494141
5640.157109	0.090146	0.123474	19408.853516
5640.158161	0.090040	0.123474	19503.576172
5640.159087	0.089945	0.123474	19586.865234
5640.159953	0.089938	0.123474	19664.751953
5640.161002	0.090070	0.123474	19759.234375
5640.162002	0.089974	0.123474	19849.208984
5641.094673	1.128735	0.159903	565.496399
5641.095596	1.525529	0.159903	1973.559326
5641.096474	1.505771	0.159903	3295.626465
5641.097441	1.464492	0.159903	4711.790527
5641.098464	1.421012	0.159903	6165.485840
5641.099358	1.384717	0.159903	7403.422852
5641.100317	1.348403	0.159903	8696.541992
5641.101387	1.309387	0.159903	10097.585937
5641.102311	1.276641	0.159903	11277.202148
5641.103177	1.246494	0.159903	12356.666016
5641.104269	1.211195	0.159903	13679.291016
5641.105267	1.178683	0.159903	14855.616211
5641.106153	1.151199	0.159903	15875.578125
5641.107146	1.125201	0.159903	16992.902344
5641.108207	1.097900	0.159903	18157.775391
5641.109100	0.876683	0.159903	18940.654297
5641.109964	0.123182	0.159903	19047.083984
5641.111049	0.089993	0.159903	19144.726562
5641.112010	0.089978	0.159903	19231.195312
5641.112882	0.090011	0.159903	19309.685547
5641.113878	0.090084	0.159903	19399.410156
5641.114923	0.089963	0.159903	19493.421875
5641.115810	0.090018	0.159903	19573.267578
5641.116696	0.090059	0.159903	19653.058594
5641.117799	0.090029	0.159903	19752.361328
5641.118758	0.089985	0.159903	19838.658203
5642.173451	1.093169	0.118717	550.957092
5642.174503	1.525312	0.118717	2155.585693
5642.175438	1.497803	0.118717	3556.031250
5642.176306	1.459640	0.118717	4822.998535
5642.177377	1.415735	0.118717	6339.250488
5642.178399	1.374800	0.118717	7744.295898
5642.179284	1.340947	0.118717	8931.034180
5642.180273	1.305817	0.118717	10222.486328
5642.181328	1.268943	0.118717	11561.220703
5642.182239	1.238214	0.118717	12689.233398
5642.183100	1.208254	0.118717	13729.541016
5642.184190	1.174819	0.118717	15010.093750
5642.185193	1.143761	0.118717	16157.286133
5642.186066	1.121675	0.118717	17136.507812
5642.187054	1.095623	0.118717	18218.982422
5642.188107	0.646381	0.118717	18899.621094
5642.189003	0.094600	0.118717	18984.382812
5642.189863	0.090018	0.118717	19061.798828
5642.190966	0.090081	0.118717	19161.158203
5642.191934	0.089996	0.118717	19248.275391
5642.192803	0.090026	0.118717	19326.507812
5642.193844	0.090084	0.118717	19420.285156
5642.194891	0.090055	0.118717	19514.572266
5642.195782	0.090026	0.118717	19594.785156
5642.196693	0.090018	0.118717	19676.791016
5642.197767	0.090055	0.118717	19773.509766
5643.129278	1.055376	0.157317	448.534760
5643.130282	1.520676	0.157317	1975.293701
5643.131354	1.498008	0.157317	3581.158203
5643.132240	1.458926	0.157317	4873.766602
5643.133109	1.420481	0.157317	6108.164551
5643.134223	1.377726	0.157317	7642.951172
5643.135187	1.341171	0.157317	8935.839844
5643.136058	1.309314	0.157317	10076.251953
5643.137078	1.273696	0.157317	11375.421875
5643.138129	1.239056	0.157317	12677.669922
5643.139025	1.208507	0.157317	13760.492187
5643.139958	1.179174	0.157317	14860.661133
5643.141034	1.145665	0.157317	16093.396484
5643.141985	1.121441	0.157317	17159.886719
5643.142853	1.098343	0.157317	18113.248047
5643.143906	0.744170	0.157317	18896.859375
5643.144912	0.095768	0.157317	18993.201172
5643.145800	0.089952	0.157317	19073.078125
5643.146745	0.090081	0.157317	19158.205078
5643.147783	0.090004	0.157317	19251.628906
5643.148699	0.090011	0.157317	19334.078125
5643.149559	0.090048	0.157317	19411.519531
5643.150630	0.090099	0.157317	19508.015625
5643.151628	0.090015	0.157317	19597.849609
5643.152503	0.089930	0.157317	19676.539062
5643.153458	0.090059	0.157317	19762.544922
5644.208607	1.083040	0.117464	485.201752
5644.209487	1.522181	0.117464	1824.721436
5644.210348	1.509664	0.117464	3124.542480
5644.211379	1.465920	0.117464	4635.906250
5644.212278	1.427970	0.117464	5919.651367
5644.213156	1.392187	0.117464	7141.992187
5644.214086	1.356075	0.117464	8403.142578
5644.215079	1.319509	0.117464	9713.415039
5644.215955	1.288440	0.117464	10842.087891
5644.216844	1.257393	0.117464	11959.910156
5644.217934	1.222339	0.117464	13292.259766
5644.218815	1.192998	0.117464	14343.291016
5644.219678	1.165887	0.117464	15349.452148
5644.220743	1.134331	0.117464	16557.515625
5644.221701	1.111315	0.117464	17622.154297
5644.222630	1.085431	0.117464	18630.519531
5644.223499	0.427463	0.117464	19001.984375
5644.224596	0.090062	0.117464	19100.783203
5644.225473	0.089864	0.117464	19179.593750
5644.226342	0.090051	0.117464	19257.847656
5644.227409	0.090081	0.117464	19353.962891
5644.228387	0.089956	0.117464	19441.939453
5644.229253	0.090007	0.117464	19519.886719
5644.230297	0.090103	0.117464	19613.953125
5644.231329	0.089993	0.117464	19706.826172
5644.232213	0.090048	0.117464	19786.427734
5644.233118	0.090051	0.117464	19867.923828
5645.165019	1.074206	0.155967	474.799255
5645.165893	1.521306	0.155967	1804.420898
5645.166756	1.510466	0.155967	3107.953369
5645.167798	1.466656	0.155967	4636.209473
5645.168681	1.428113	0.155967	5897.232910
5645.169561	1.392740	0.155967	7122.844727
5645.170564	1.353918	0.155967	8480.825195
5645.171558	1.316781	0.155967	9789.705078
5645.172457	1.285492	0.155967	10945.362305
5645.173323	1.254503	0.155967	12031.761719
5645.174412	1.219893	0.155967	13360.224609
5645.175325	1.189548	0.155967	14446.282227
5645.176211	1.161859	0.155967	15475.689453
5645.177222	1.132716	0.155967	16620.865234
5645.178217	1.108627	0.155967	17723.949219
5645.179104	1.083746	0.155967	18685.232422
5645.180113	0.313645	0.155967	19001.701172
5645.181156	0.089949	0.155967	19095.517578
5645.182043	0.090040	0.155967	19175.382812
5645.182899	0.090040	0.155967	19252.457031
5645.183995	0.090051	0.155967	19351.152344
5645.184950	0.089974	0.155967	19437.078125
5645.185805	0.089934	0.155967	19513.972656
5645.186864	0.090055	0.155967	19609.341797
5645.187917	0.090044	0.155967	19704.158203
5645.188792	0.089989	0.155967	19782.898437
5645.189703	0.090033	0.155967	19864.917969
5646.241735	1.064026	0.119591	462.851257
5646.242604	1.520482	0.119591	1784.150391
5646.243679	1.502439	0.119591	3399.272461
5646.244691	1.458677	0.119591	4875.453125
5646.245584	1.421547	0.119591	6144.894043
5646.246567	1.382164	0.119591	7503.561523
5646.247635	1.341493	0.119591	8936.275391
5646.248545	1.308131	0.119591	10126.674805
5646.249409	1.276762	0.119591	11229.796875
5646.250521	1.240268	0.119591	12608.975586
5646.251506	1.207947	0.119591	13798.802734
5646.252377	1.179591	0.119591	14826.226562
5646.253449	1.146742	0.119591	16055.534180
5646.254501	1.120192	0.119591	17233.976562
5646.255403	1.095560	0.119591	18222.171875
5646.256341	0.749070	0.119591	18924.798828
5646.257398	0.095885	0.119591	19026.148437
5646.258333	0.090040	0.119591	19110.335937
5646.259192	0.090106	0.119591	19187.736328
5646.260245	0.090095	0.119591	19282.607422
5646.261254	0.090081	0.119591	19373.498047
5646.262137	0.089989	0.119591	19452.958984
5646.263088	0.090059	0.119591	19538.605469
5646.264140	0.090092	0.119591	19633.380859
5646.265059	0.090022	0.119591	19716.111328
5646.265917	0.090066	0.119591	19793.388672
5647.200295	1.144391	0.155403	593.938843
5647.201306	1.526276	0.155403	2137.003418
5647.202189	1.500795	0.155403	3462.205078
5647.203162	1.458497	0.155403	4881.323242
5647.204240	1.414413	0.155403	6406.060547
5647.205132	1.377876	0.155403	7635.125977
5647.206000	1.343031	0.155403	8800.876953
5647.207110	1.304429	0.155403	10248.792969
5647.208089	1.270642	0.155403	11492.751953
5647.208959	1.241334	0.155403	12572.712891
5647.210004	1.206394	0.155403	13833.394531
5647.211061	1.173036	0.155403	15073.292969
5647.211952	1.145640	0.155403	16094.057617
5647.212888	1.121320	0.155403	17143.613281
5647.213965	1.093037	0.155403	18320.814453
5647.214915	0.665413	0.155403	18952.957031
5647.215779	0.096508	0.155403	19036.339844
5647.216842	0.090051	0.155403	19132.064453
5647.217854	0.090015	0.155403	19223.160156
5647.218747	0.090004	0.155403	19303.533203
5647.219699	0.090073	0.155403	19389.283203
5647.220755	0.090026	0.155403	19484.349609
5647.221669	0.089956	0.155403	19566.570312
5647.222530	0.089993	0.155403	19644.054687
5647.223599	0.090150	0.155403	19740.425781
5647.224605	0.089934	0.155403	19830.900391
5648.276992	1.084149	0.117569	536.653870
5648.277976	1.526532	0.117569	2038.761230
5648.278890	1.501835	0.117569	3411.438232
5648.279783	1.463262	0.117569	4718.130859
5648.280799	1.421708	0.117569	6162.585937
5648.281722	1.383435	0.117569	7439.496582
5648.282638	1.348315	0.117569	8674.553711
5648.283510	1.314877	0.117569	9821.125977
5648.284561	1.279541	0.117569	11165.923828
5648.285439	1.249416	0.117569	12262.911133
5648.286310	1.219153	0.117569	13324.792969
5648.287407	1.185190	0.117569	14624.947266
5648.288321	1.156249	0.117569	15681.758789
5648.289211	1.130270	0.117569	16687.699219
5648.290196	1.107400	0.117569	17778.488281
5648.291209	1.033645	0.117569	18825.570312
5648.292103	0.197311	0.117569	19001.966797
5648.292963	0.089897	0.117569	19079.279297
5648.294083	0.089993	0.117569	19180.070312
5648.294998	0.089956	0.117569	19262.380859
5648.295871	0.089934	0.117569	19340.892578
5648.296869	0.090077	0.117569	19430.789062
5648.297862	0.089952	0.117569	19520.111328
5648.298741	0.090022	0.117569	19599.240234
5648.299734	0.090018	0.117569	19688.628906
5648.300766	0.089927	0.117569	19781.433594
5649.234905	1.086072	0.150537	482.215851
5649.235777	1.521742	0.150537	1809.174683
5649.236646	1.508456	0.150537	3120.022949
5649.237699	1.464803	0.150537	4662.460937
5649.238596	1.427084	0.150537	5942.555176
5649.239483	1.391250	0.150537	7176.593750
5649.240473	1.353483	0.150537	8516.541016
5649.241428	1.317228	0.150537	9774.493164
5649.242356	1.285129	0.150537	10967.092773
5649.243224	1.254844	0.150537	12056.296875
5649.244271	1.220618	0.150537	13334.283203
5649.245161	1.191266	0.150537	14394.509766
5649.246039	1.163947	0.150537	15416.455078
5649.247019	1.135214	0.150537	16528.964844
5649.247991	1.112223	0.150537	17610.044922
5649.248860	1.087024	0.150537	18554.667969
5649.249793	0.489778	0.150537	19011.630859
5649.250848	0.090212	0.150537	19106.804687
5649.251744	0.089989	0.150537	19187.435547
5649.252609	0.090037	0.150537	19265.316406
5649.253631	0.090066	0.150537	19357.363281
5649.254606	0.089982	0.150537	19445.095703
5649.255482	0.090029	0.150537	19523.960937
5649.256368	0.090029	0.150537	19603.726562
5649.257474	0.090037	0.150537	19703.306641
5649.258368	0.090070	0.150537	19783.828125
5649.259254	0.089993	0.150537	19863.562500
5650.310209	1.162778	0.118729	633.714233
5650.311163	1.526693	0.118729	2090.179443
5650.312028	1.503116	0.118729	3390.375244
5650.313073	1.458376	0.118729	4914.378418
5650.314113	1.415427	0.118729	6386.422852
5650.314988	1.379268	0.118729	7593.282227
5650.315898	1.343829	0.118729	8816.166992
5650.316970	1.305238	0.118729	10215.381836
5650.317920	1.272568	0.118729	11424.322266
5650.318789	1.242891	0.118729	12504.394531
5650.319817	1.208987	0.118729	13747.232422
5650.320837	1.176577	0.118729	14947.340820
5650.321733	1.148676	0.118729	15976.553711
5650.322684	1.123846	0.118729	17045.332031
5650.323751	1.096143	0.118729	18214.916016
5650.324689	0.789335	0.118729	18955.312500
5650.325550	0.106589	0.118729	19047.085937
5650.326615	0.090004	0.118729	19142.939453
5650.327617	0.090026	0.118729	19233.144531
5650.328502	0.090022	0.118729	19312.814453
5650.329476	0.090055	0.118729	19400.527344
5650.330518	0.090015	0.118729	19494.322266
5650.331418	0.089978	0.118729	19575.302734
5650.332277	0.090110	0.118729	19652.707031
5650.333338	0.090081	0.118729	19748.283203
5650.334333	0.089905	0.118729	19837.738281
5651.268546	1.057489	0.155065	455.777771
5651.269565	1.522438	0.155065	2007.141846
5651.270617	1.497982	0.155065	3583.019043
5651.271498	1.459230	0.155065	4868.600586
5651.272402	1.420693	0.155065	6152.907227
5651.273490	1.377854	0.155065	7652.012207
5651.274440	1.341650	0.155065	8926.580078
5651.275305	1.309951	0.155065	10059.687500
5651.276358	1.273828	0.155065	11401.028320
5651.277385	1.239584	0.155065	12674.081055
5651.278263	1.209763	0.155065	13736.252930
5651.279214	1.178987	0.155065	14857.469727
5651.280275	1.146416	0.155065	16073.817383
5651.281214	1.122107	0.155065	17127.476562
5651.282084	1.099193	0.155065	18083.775391
5651.283153	0.753640	0.155065	18889.416016
5651.284152	0.096313	0.155065	18985.632812
5651.285038	0.089996	0.155065	19065.369141
5651.286004	0.090066	0.155065	19152.373047
5651.287046	0.090062	0.155065	19246.218750
5651.287971	0.090088	0.155065	19329.550781
5651.288834	0.090048	0.155065	19407.261719
5651.289920	0.090117	0.155065	19505.128906
5651.290910	0.089963	0.155065	19594.193359
5651.291801	0.090018	0.155065	19674.400391
5651.292784	0.090037	0.155065	19762.906250
5652.346911	1.136422	0.115144	580.711731
5652.347830	1.525737	0.115144	1982.864258
5652.348695	1.505035	0.115144	3284.719727
5652.349784	1.459061	0.115144	4873.637695
5652.350788	1.416932	0.115144	6296.237793
5652.351666	1.381600	0.115144	7509.283203
5652.352674	1.343844	0.115144	8863.877930
5652.353721	1.305612	0.115144	10230.853516
5652.354616	1.274099	0.115144	11371.171875
5652.355478	1.243674	0.115144	12443.218750
5652.356579	1.208240	0.115144	13773.490234
5652.357555	1.176771	0.115144	14922.019531
5652.358423	1.150078	0.115144	15920.287109
5652.359499	1.121946	0.115144	17127.500000
5652.360542	1.094374	0.115144	18268.931641
5652.361436	0.776305	0.115144	18962.949219
5652.362373	0.104952	0.115144	19061.289062
5652.363433	0.089945	0.115144	19156.630859
5652.364368	0.089897	0.115144	19240.685547
5652.365275	0.089971	0.115144	19322.289062
5652.366153	0.089978	0.115144	19401.289062
5652.367197	0.090022	0.115144	19495.271484
5652.368093	0.089916	0.115144	19575.835937
5652.368965	0.089960	0.115144	19654.281250
5652.369877	0.089993	0.115144	19736.355469
5652.370873	0.089989	0.115144	19825.984375
5653.303807	1.111337	0.148712	544.554932
5653.304687	1.523892	0.148712	1885.579468
5653.305617	1.505347	0.148712	3285.551758
5653.306688	1.459248	0.148712	4848.406250
5653.307634	1.419939	0.148712	6191.668457
5653.308503	1.384490	0.148712	7394.790039
5653.309538	1.344866	0.148712	8786.726562
5653.310571	1.307498	0.148712	10137.371094
5653.311465	1.276260	0.148712	11278.347656
5653.312411	1.244707	0.148712	12455.840820
5653.313462	1.209668	0.148712	13727.202148
5653.314394	1.179719	0.148712	14826.700195
5653.315315	1.150986	0.148712	15886.758789
5653.316188	1.126659	0.148712	16870.332031
5653.317216	1.101511	0.148712	18002.685547
5653.318101	0.992732	0.148712	18881.253906
5653.318986	0.169460	0.148712	19031.226562
5653.319954	0.089901	0.148712	19118.250000
5653.320915	0.089930	0.148712	19204.673828
5653.321818	0.089952	0.148712	19285.900391
5653.322700	0.089978	0.148712	19365.261719
5653.323720	0.090000	0.148712	19457.062500
5653.324616	0.089982	0.148712	19537.685547
5653.325489	0.090059	0.148712	19616.306641
5653.326369	0.090051	0.148712	19695.550781
5653.327398	0.089956	0.148712	19788.115234
5654.381004	1.075181	0.116433	470.929138
5654.381870	1.520211	0.116433	1787.431885
5654.382955	1.501512	0.116433	3416.572754
5654.383955	1.458058	0.116433	4874.630371
5654.384859	1.420898	0.116433	6159.122559
5654.385843	1.381377	0.116433	7518.397461
5654.386894	1.341566	0.116433	8928.383789
5654.387787	1.308607	0.116433	10096.969727
5654.388653	1.276663	0.116433	11202.559570
5654.389770	1.240624	0.116433	12588.335937
5654.390742	1.208298	0.116433	13762.801758
5654.391611	1.180521	0.116433	14788.674805
5654.392655	1.148397	0.116433	15987.601562
5654.393682	1.121810	0.116433	17139.701172
5654.394583	1.097666	0.116433	18128.699219
5654.395521	0.815270	0.116433	18893.421875
5654.396587	0.100474	0.116433	19000.527344
5654.397527	0.089795	0.116433	19084.933594
5654.398389	0.089886	0.116433	19162.416016
5654.399435	0.089930	0.116433	19256.482422
5654.400452	0.089839	0.116433	19347.847656
5654.401329	0.089872	0.116433	19426.666016
5654.402297	0.090007	0.116433	19513.792969
5654.403351	0.089908	0.116433	19608.556641
5654.404271	0.089846	0.116433	19691.214844
5654.405130	0.089956	0.116433	19768.486328
5655.337433	1.070446	0.148535	475.277832
5655.338294	1.520870	0.148535	1784.747192
5655.339323	1.503600	0.148535	3331.951416
5655.340338	1.460101	0.148535	4813.954102
5655.341231	1.422638	0.148535	6084.369629
5655.342189	1.384446	0.148535	7410.668945
5655.343243	1.343723	0.148535	8826.953125
5655.344168	1.309775	0.148535	10038.495117
5655.345044	1.278523	0.148535	11158.481445
5655.346108	1.243227	0.148535	12481.275391
5655.347119	1.209573	0.148535	13704.153320
5655.348015	1.181059	0.148535	14762.382812
5655.348986	1.151290	0.148535	15880.285156
5655.350042	1.122982	0.148535	17066.154297
5655.350960	1.099039	0.148535	18075.072266
5655.351829	0.890911	0.148535	18849.273437
5655.352933	0.108768	0.148535	18969.353516
5655.353899	0.089846	0.148535	19056.144531
5655.354778	0.089923	0.148535	19135.187500
5655.355780	0.089993	0.148535	19225.359375
5655.356844	0.089993	0.148535	19321.111328
5655.357722	0.089894	0.148535	19400.039062
5655.358595	0.089974	0.148535	19478.585937
5655.359682	0.090022	0.148535	19576.439453
5655.360639	0.089952	0.148535	19662.523437
5655.361495	0.089919	0.148535	19739.494141
5656.416793	1.135232	0.115019	578.968262
5656.417678	1.524631	0.115019	1928.267090
5656.418602	1.504314	0.115019	3318.253174
5656.419678	1.458647	0.115019	4887.757812
5656.420625	1.419082	0.115019	6231.628418
5656.421485	1.383750	0.115019	7421.653320
5656.422520	1.344060	0.115019	8812.755859
5656.423539	1.307271	0.115019	10144.864258
5656.424437	1.275839	0.115019	11290.567383
5656.425398	1.243821	0.115019	12485.878906
5656.426456	1.208313	0.115019	13764.274414
5656.427391	1.178511	0.115019	14866.181641
5656.428261	1.150997	0.115019	15867.548828
5656.429340	1.122674	0.115019	17078.914062
5656.430349	1.096176	0.115019	18184.955078
5656.431239	0.852759	0.115019	18943.910156
5656.432220	0.113145	0.115019	19054.904297
5656.433274	0.089934	0.115019	19149.695312
5656.434182	0.089982	0.115019	19231.398437
5656.435045	0.089971	0.115019	19309.042969
5656.436114	0.090029	0.115019	19405.285156
5656.437100	0.089886	0.115019	19493.914062
5656.437990	0.089938	0.115019	19573.958984
5656.438859	0.089971	0.115019	19652.142578
5656.439857	0.089952	0.115019	19741.916016
5656.440771	0.089971	0.115019	19824.148437
5657.371079	1.061744	0.149481	457.611816
5657.372066	1.520237	0.149481	1958.085571
5657.373104	1.499381	0.149481	3514.443115
5657.374022	1.459314	0.149481	4854.093262
5657.374886	1.422096	0.149481	6082.784180
5657.375968	1.379725	0.149481	7575.646973
5657.376973	1.341240	0.149481	8923.593750
5657.377853	1.309178	0.149481	10075.670898
5657.378849	1.275070	0.149481	11345.640625
5657.379896	1.240195	0.149481	12644.125000
5657.380782	1.209474	0.149481	13715.718750
5657.381655	1.180291	0.149481	14746.112305
5657.382776	1.146925	0.149481	16031.815430
5657.383754	1.122158	0.149481	17129.285156
5657.384622	1.099182	0.149481	18083.375000
5657.385665	0.765487	0.149481	18881.777344
5657.386715	0.096013	0.149481	18982.591797
5657.387605	0.089879	0.149481	19062.583984
5657.388533	0.090026	0.149481	19146.126953
5657.389593	0.090007	0.149481	19241.535156
5657.390536	0.089949	0.149481	19326.357422
5657.391403	0.089963	0.149481	19404.355469
5657.392459	0.089985	0.149481	19499.380859
5657.393481	0.089919	0.149481	19591.279297
5657.394370	0.089941	0.149481	19671.236328
5657.395240	0.089996	0.149481	19749.533203
5658.453019	1.128318	0.115575	568.672180
5658.453921	1.524961	0.115575	1944.187012
5658.454804	1.505947	0.115575	3273.938477
5658.455793	1.463408	0.115575	4721.249023
5658.456797	1.421012	0.115575	6147.944824
5658.457694	1.384915	0.115575	7390.212891
5658.458560	1.350458	0.115575	8559.708984
5658.459648	1.311705	0.115575	9986.844727
5658.460579	1.278944	0.115575	11177.541992
5658.461458	1.249288	0.115575	12275.666016
5658.462422	1.217501	0.115575	13449.336914
5658.463439	1.184290	0.115575	14653.759766
5658.464324	1.156718	0.115575	15677.455078
5658.465313	1.129391	0.115575	16794.421875
5658.466368	1.102987	0.115575	17958.074219
5658.467277	1.010977	0.115575	18877.052734
5658.468142	0.182629	0.115575	19035.027344
5658.469225	0.089908	0.115575	19132.398437
5658.470213	0.089894	0.115575	19221.212891
5658.471087	0.089916	0.115575	19299.798828
5658.472077	0.090062	0.115575	19388.960937
5658.473128	0.089978	0.115575	19483.527344
5658.474019	0.090022	0.115575	19563.736328
5658.474881	0.089919	0.115575	19641.246094
5658.475981	0.090084	0.115575	19740.337891
5658.476946	0.089985	0.115575	19827.173828
5659.405237	1.067933	0.145759	450.667908
5659.406344	1.524847	0.145759	2138.674072
5659.407230	1.500293	0.145759	3467.933594
5659.408111	1.462394	0.145759	4756.302734
5659.409112	1.420649	0.145759	6178.373047
5659.410110	1.380125	0.145759	7555.737305
5659.411006	1.346078	0.145759	8761.823242
5659.411871	1.312943	0.145759	9897.519531
5659.412970	1.276091	0.145759	11299.944336
5659.413889	1.244864	0.145759	12443.974609
5659.414758	1.214718	0.145759	13499.564453
5659.415853	1.180638	0.145759	14792.363281
5659.416820	1.150565	0.145759	15904.959961
5659.417707	1.126333	0.145759	16904.017578
5659.418728	1.101248	0.145759	18028.390625
5659.419776	0.851316	0.145759	18920.570312
5659.420668	0.114130	0.145759	19022.373047
5659.421559	0.089886	0.145759	19102.460937
5659.422628	0.090026	0.145759	19198.699219
5659.423584	0.089912	0.145759	19284.654297
5659.424448	0.090004	0.145759	19362.417969
5659.425486	0.090066	0.145759	19455.906250
5659.426523	0.090004	0.145759	19549.240234
5659.427392	0.089982	0.145759	19627.433594
5659.428297	0.090029	0.145759	19708.910156
5659.429357	0.089985	0.145759	19804.294922
5660.488750	1.147797	0.115249	603.741028
5660.489779	1.525891	0.115249	2173.883057
5660.490671	1.499414	0.115249	3511.360352
5660.491620	1.458604	0.115249	4895.575195
5660.492679	1.414534	0.115249	6393.566406
5660.493609	1.377118	0.115249	7674.286133
5660.494473	1.343415	0.115249	8834.997070
5660.495515	1.305831	0.115249	10195.673828
5660.496529	1.270657	0.115249	11484.120117
5660.497421	1.240767	0.115249	12590.883789
5660.498394	1.208807	0.115249	13767.053711
5660.499444	1.175109	0.115249	15000.917969
5660.500370	1.145955	0.115249	16062.072266
5660.501237	1.123206	0.115249	17035.890625
5660.502320	1.095692	0.115249	18222.525391
5660.503318	0.707732	0.115249	18928.841797
5660.504205	0.097877	0.115249	19015.658203
5660.505186	0.089996	0.115249	19103.945312
5660.506243	0.090073	0.115249	19199.152344
5660.507141	0.090000	0.115249	19279.972656
5660.508005	0.090022	0.115249	19357.751953
5660.509111	0.090121	0.115249	19457.425781
5660.510086	0.089985	0.115249	19545.162109
5660.510996	0.090026	0.115249	19627.085937
5660.511876	0.089949	0.115249	19706.240234
5660.512884	0.090029	0.115249	19796.990234
5661.436878	1.061986	0.150871	466.211884
5661.437740	1.520076	0.150871	1776.517090
5661.438828	1.501970	0.150871	3410.660645
5661.439846	1.457878	0.150871	4894.780762
5661.440720	1.421184	0.150871	6136.895508
5661.441708	1.381824	0.150871	7502.137207
5661.442756	1.341658	0.150871	8908.194336
5661.443664	1.308190	0.150871	10096.030273
5661.444539	1.276685	0.150871	11213.128906
5661.445639	1.240565	0.150871	12577.750977
5661.446618	1.207793	0.150871	13760.180664
5661.447507	1.179690	0.150871	14808.924805
5661.448503	1.149027	0.150871	15953.355469
5661.449566	1.121766	0.150871	17145.792969
5661.450460	1.098010	0.150871	18127.414062
5661.451340	0.844625	0.150871	18870.683594
5661.452437	0.101620	0.150871	18982.160156
5661.453404	0.089832	0.150871	19069.027344
5661.454265	0.089941	0.150871	19146.466797
5661.455292	0.090033	0.150871	19238.929687
5661.456308	0.089908	0.150871	19330.277344
5661.457192	0.089960	0.150871	19409.800781
5661.458120	0.090022	0.150871	19493.341797
5661.459190	0.089971	0.150871	19589.611328
5661.460130	0.089941	0.150871	19674.156250
5661.460993	0.089960	0.150871	19751.791016
