time (s)	coil I (A)	last det (V)	int current (uC)
8856.429155	1.448357	0.173597	813.976562
8856.430202	2.464973	0.173597	3394.803223
8856.431099	2.419607	0.173597	5565.190430
8856.432043	1.663539	0.173597	7135.571289
8856.433113	0.810677	0.173597	8002.996094
8856.434057	0.762074	0.173597	8722.393555
8856.434923	0.738530	0.173597	9361.960937
8856.435993	0.717458	0.173597	10129.641602
8856.437011	0.700049	0.173597	10842.291016
8856.437912	0.296697	0.173597	11109.615234
8856.438893	0.090992	0.173597	11198.878906
8856.439931	0.091685	0.173597	11294.047852
8856.440843	0.091981	0.173597	11377.934570
8856.441706	0.091344	0.173597	11456.764648
8856.442791	0.091234	0.173597	11555.753906
8856.443785	0.091282	0.173597	11646.488281
8856.444657	0.091267	0.173597	11726.073242
8856.445667	0.090897	0.173597	11817.879883
8856.446725	0.090802	0.173597	11913.948242
8856.447609	0.090820	0.173597	11994.233398
8857.438746	0.634149	0.179974	328.489258
8857.439814	0.283022	0.179974	630.757263
8857.440734	0.288582	0.179974	896.252319
8857.441601	0.284161	0.179974	1142.620239
8857.442704	0.269136	0.179974	1439.476929
8857.443691	0.250573	0.179974	1686.791992
8857.444593	0.245713	0.179974	1908.425049
8857.445595	0.244442	0.179974	2153.355957
8857.446652	0.243505	0.179974	2410.740234
8857.447542	0.233870	0.179974	2618.884277
8857.448413	0.090857	0.179974	2698.020752
8857.449523	0.091619	0.179974	2799.717529
8857.450472	0.091879	0.179974	2886.910400
8857.451334	0.091582	0.179974	2965.854004
8857.452389	0.091219	0.179974	3062.090576
8857.453421	0.091128	0.179974	3156.134521
8857.454305	0.091238	0.179974	3236.788818
8857.455231	0.090967	0.179974	3321.024170
8857.456284	0.090795	0.179974	3416.630859
8857.457220	0.090703	0.179974	3501.529053
8858.453480	0.563606	0.203085	262.640381
8858.454357	0.279540	0.203085	507.796783
8858.455345	0.288256	0.203085	792.593384
8858.456396	0.284366	0.203085	1091.462524
8858.457315	0.271930	0.203085	1341.366211
8858.458184	0.254528	0.203085	1562.550659
8858.459283	0.246090	0.203085	1833.003662
8858.460272	0.244680	0.203085	2074.992432
8858.461155	0.243765	0.203085	2290.236572
8858.462157	0.251689	0.203085	2542.429443
8858.463220	0.091084	0.203085	2639.251709
8858.464097	0.092003	0.203085	2719.938477
8858.464963	0.091699	0.203085	2799.350098
8858.466058	0.091538	0.203085	2899.584229
8858.467018	0.091648	0.203085	2987.566162
8858.467875	0.091315	0.203085	3065.822754
8858.468928	0.091055	0.203085	3161.703369
8858.469967	0.091113	0.203085	3256.370117
8858.470851	0.090853	0.203085	3336.684326
8858.471776	0.090718	0.203085	3420.598389
8859.483586	0.641638	0.181090	276.546082
8859.484454	0.278705	0.181090	518.461914
8859.485469	0.288186	0.181090	810.970703
8859.486518	0.284330	0.181090	1109.232666
8859.487412	0.272549	0.181090	1352.891357
8859.488342	0.254934	0.181090	1589.979980
8859.489430	0.245991	0.181090	1857.618408
8859.490376	0.244790	0.181090	2089.189697
8859.491247	0.243907	0.181090	2301.633057
8859.492309	0.235126	0.181090	2551.336670
8859.493312	0.090707	0.181090	2642.315674
8859.494200	0.091820	0.181090	2723.851807
8859.495153	0.091758	0.181090	2811.297119
8859.496195	0.091388	0.181090	2906.523437
8859.497119	0.091362	0.181090	2990.942139
8859.497976	0.091208	0.181090	3069.107910
8859.499028	0.091022	0.181090	3164.862793
8859.500037	0.091080	0.181090	3256.762939
8859.500913	0.090831	0.181090	3336.331055
8859.501881	0.090831	0.181090	3424.255859
8860.487106	0.602538	0.210658	259.091248
8860.487973	0.279232	0.210658	501.185547
8860.489066	0.288354	0.210658	816.356995
8860.490054	0.284238	0.210658	1097.184448
8860.490952	0.272589	0.210658	1341.969482
8860.491943	0.254099	0.210658	1593.781738
8860.492991	0.246075	0.210658	1851.668823
8860.493896	0.244812	0.210658	2073.223633
8860.494774	0.243999	0.210658	2287.454834
8860.495887	0.237001	0.210658	2551.236572
8860.496838	0.091066	0.210658	2637.840088
8860.497698	0.091674	0.210658	2716.679443
8860.498729	0.091765	0.210658	2811.289307
8860.499778	0.091545	0.210658	2907.320557
8860.500652	0.091838	0.210658	2987.587402
8860.501567	0.091187	0.210658	3071.022949
8860.502638	0.091022	0.210658	3168.507324
8860.503583	0.091384	0.210658	3254.865479
8860.504440	0.090901	0.210658	3332.767578
8860.505465	0.090905	0.210658	3425.944824
8861.523401	0.630923	0.179604	275.082367
8861.524268	0.279441	0.179604	517.357666
8861.525288	0.288951	0.179604	812.088135
8861.526330	0.285201	0.179604	1109.268066
8861.527229	0.273743	0.179604	1355.362793
8861.528162	0.255864	0.179604	1594.084106
8861.529245	0.246277	0.179604	1860.802002
8861.530191	0.244940	0.179604	2092.515381
8861.531067	0.244039	0.179604	2306.293701
8861.532152	0.234115	0.179604	2560.308594
8861.533160	0.090952	0.179604	2651.988281
8861.534055	0.091992	0.179604	2734.321289
8861.535016	0.091750	0.179604	2822.493408
8861.536064	0.091458	0.179604	2918.340820
8861.536980	0.091260	0.179604	3001.934814
8861.537840	0.091252	0.179604	3080.411865
8861.538932	0.091018	0.179604	3179.803711
8861.539908	0.090967	0.179604	3268.587402
8861.540793	0.091033	0.179604	3349.151367
8861.541791	0.090776	0.179604	3439.746094
8862.523877	0.632146	0.214614	293.315735
8862.524774	0.280800	0.214614	545.192932
8862.525640	0.289281	0.214614	795.710266
8862.526635	0.286732	0.214614	1081.008789
8862.527574	0.275248	0.214614	1339.466553
8862.528472	0.257981	0.214614	1571.133423
8862.529481	0.246969	0.214614	1820.325195
8862.530379	0.245647	0.214614	2040.916138
8862.531294	0.244351	0.214614	2264.496826
8862.532161	0.321453	0.214614	2543.196289
8862.533183	0.090297	0.214614	2635.479492
8862.534085	0.091359	0.214614	2717.885010
8862.534971	0.092000	0.214614	2799.396484
8862.535952	0.091754	0.214614	2889.407227
8862.536890	0.091578	0.214614	2975.307617
8862.537809	0.091545	0.214614	3059.437744
8862.538673	0.091252	0.214614	3138.279785
8862.539714	0.090963	0.214614	3232.972412
8862.540599	0.091055	0.214614	3313.555908
8862.541471	0.091047	0.214614	3392.949219
8863.558075	0.634486	0.187221	270.925568
8863.559076	0.280928	0.187221	552.134277
8863.560003	0.289358	0.187221	820.369019
8863.560883	0.286370	0.187221	1072.374268
8863.561842	0.274486	0.187221	1335.606445
8863.562888	0.254634	0.187221	1601.953369
8863.563786	0.246709	0.187221	1823.498047
8863.564655	0.245449	0.187221	2036.793457
8863.565730	0.244299	0.187221	2299.415283
8863.566680	0.281979	0.187221	2567.295166
8863.567551	0.091113	0.187221	2646.654785
8863.568517	0.091578	0.187221	2735.119385
8863.569532	0.091860	0.187221	2828.357666
8863.570419	0.091670	0.187221	2909.668945
8863.571279	0.091685	0.187221	2988.517578
8863.572337	0.091509	0.187221	3085.333984
8863.573281	0.091212	0.187221	3171.438232
8863.574156	0.091355	0.187221	3251.373779
8863.575086	0.091000	0.187221	3336.003662
8863.576149	0.090916	0.187221	3432.646973
8864.561682	0.650933	0.213961	335.230286
8864.562746	0.283319	0.213961	636.681763
8864.563624	0.289153	0.213961	890.557983
8864.564494	0.285363	0.213961	1138.823364
8864.565538	0.271337	0.213961	1422.098877
8864.566497	0.252916	0.213961	1664.645630
8864.567378	0.246588	0.213961	1881.889771
8864.568316	0.245325	0.213961	2112.004395
8864.569367	0.244376	0.213961	2368.843750
8864.570267	0.273219	0.213961	2614.740723
8864.571126	0.091077	0.213961	2692.975586
8864.572167	0.091758	0.213961	2788.495361
8864.573128	0.091783	0.213961	2876.699219
8864.574002	0.091886	0.213961	2957.007568
8864.574907	0.091498	0.213961	3039.812988
8864.575998	0.091329	0.213961	3139.453369
8864.576876	0.091450	0.213961	3219.746582
8864.577732	0.091432	0.213961	3298.012207
8864.578740	0.091062	0.213961	3389.802734
8864.579726	0.090908	0.213961	3479.438232
8865.594926	0.511688	0.181799	266.589569
8865.595967	0.283737	0.181799	561.959351
8865.596859	0.289402	0.181799	820.105835
8865.597828	0.284469	0.181799	1095.756348
8865.598882	0.269374	0.181799	1379.676270
8865.599814	0.251364	0.181799	1613.947021
8865.600684	0.246420	0.181799	1828.332153
8865.601767	0.245035	0.181799	2093.705566
8865.602783	0.243999	0.181799	2341.608643
8865.603668	0.241556	0.181799	2555.385986
8865.604663	0.090934	0.181799	2645.865234
8865.605710	0.091857	0.181799	2742.039062
8865.606602	0.092051	0.181799	2824.148437
8865.607468	0.091608	0.181799	2903.480713
8865.608532	0.091509	0.181799	3000.846191
8865.609530	0.091490	0.181799	3092.153809
8865.610421	0.091234	0.181799	3173.443359
8865.611419	0.090897	0.181799	3264.158691
8865.612475	0.090905	0.181799	3360.153809
8865.613370	0.091150	0.181799	3441.732910
8866.600386	0.634442	0.214630	272.175690
8866.601424	0.281902	0.214630	564.789795
8866.602475	0.289395	0.214630	868.943481
8866.603362	0.284905	0.214630	1121.654053
8866.604283	0.271915	0.214630	1372.088013
8866.605363	0.252089	0.214630	1644.343750
8866.606298	0.246332	0.214630	1874.663940
8866.607171	0.245134	0.214630	2088.666260
8866.608202	0.244091	0.214630	2340.323730
8866.609235	0.224191	0.214630	2571.912598
8866.610127	0.091351	0.214630	2653.397949
8866.611090	0.091758	0.214630	2741.760742
8866.612153	0.091677	0.214630	2839.213623
8866.613075	0.091633	0.214630	2923.699463
8866.613943	0.091490	0.214630	3003.113281
8866.615026	0.091234	0.214630	3101.919922
8866.616021	0.091201	0.214630	3192.665039
8866.616909	0.091263	0.214630	3273.707031
8866.617886	0.090806	0.214630	3362.424072
8866.618943	0.090699	0.214630	3458.293457
8867.630528	0.631480	0.180905	270.273224
8867.631603	0.282601	0.180905	574.069580
8867.632608	0.289197	0.180905	864.712341
8867.633499	0.284832	0.180905	1118.497314
8867.634500	0.270677	0.180905	1389.445435
8867.635556	0.251063	0.180905	1654.568237
8867.636456	0.246324	0.180905	1876.260254
8867.637318	0.245193	0.180905	2087.616455
8867.638427	0.244135	0.180905	2358.361572
8867.639397	0.232738	0.180905	2584.117432
8867.640271	0.091183	0.180905	2663.811279
8867.641309	0.091853	0.180905	2759.154785
8867.642353	0.091882	0.180905	2855.079834
8867.643234	0.091864	0.180905	2936.011963
8867.644118	0.091582	0.180905	3016.970459
8867.645224	0.091219	0.180905	3117.859131
8867.646165	0.091315	0.180905	3203.786377
8867.647036	0.091274	0.180905	3283.286377
8867.648051	0.090956	0.180905	3375.606445
8867.649088	0.091095	0.180905	3470.072021
8868.637112	0.641719	0.218469	269.521881
8868.638197	0.282480	0.218469	576.013184
8868.639204	0.289182	0.218469	867.219604
8868.640086	0.284586	0.218469	1118.224609
8868.641100	0.270374	0.218469	1392.383301
8868.642153	0.250664	0.218469	1656.332520
8868.643050	0.246064	0.218469	1877.052368
8868.643913	0.244896	0.218469	2088.397949
8868.645012	0.243860	0.218469	2356.399902
8868.645984	0.234291	0.218469	2584.130615
8868.646843	0.091066	0.218469	2662.355957
8868.647908	0.091853	0.218469	2760.179443
8868.648963	0.091652	0.218469	2856.871826
8868.649834	0.092058	0.218469	2937.054443
8868.650754	0.091432	0.218469	3021.171875
8868.651828	0.091322	0.218469	3119.251709
8868.652764	0.091285	0.218469	3204.694824
8868.653634	0.091179	0.218469	3284.020752
8868.654667	0.090959	0.218469	3377.981934
8868.655694	0.090930	0.218469	3471.367187
8869.666243	0.602582	0.190617	260.917908
8869.667107	0.279503	0.190617	502.408630
8869.668207	0.289135	0.190617	820.456604
8869.669170	0.285330	0.190617	1095.229004
8869.670045	0.274105	0.190617	1335.071045
8869.671165	0.253187	0.190617	1618.640747
8869.672192	0.246061	0.190617	1871.345215
8869.673080	0.244856	0.190617	2088.777344
8869.674018	0.243871	0.190617	2317.528320
8869.675090	0.218701	0.190617	2551.976074
8869.676028	0.090992	0.190617	2637.326904
8869.676887	0.092102	0.190617	2716.442627
8869.677950	0.091707	0.190617	2813.926758
8869.678963	0.091487	0.190617	2906.603027
8869.679841	0.091505	0.190617	2986.944580
8869.680786	0.091399	0.190617	3073.316650
8869.681854	0.091150	0.190617	3170.664795
8869.682772	0.091230	0.190617	3254.414307
8869.683640	0.091058	0.190617	3333.452881
8869.684686	0.090835	0.190617	3428.466309
8870.674976	0.524495	0.214670	270.639252
8870.675913	0.282045	0.214670	534.915161
8870.676784	0.289028	0.214670	786.658813
8870.677848	0.284685	0.214670	1089.563721
8870.678867	0.270857	0.214670	1365.566895
8870.679751	0.253458	0.214670	1589.624023
8870.680723	0.246281	0.214670	1829.008667
8870.681782	0.244849	0.214670	2088.303223
8870.682709	0.243878	0.214670	2314.378174
8870.683576	0.246101	0.214670	2527.747803
8870.684662	0.090959	0.214670	2626.529785
8870.685653	0.091564	0.214670	2717.269531
8870.686525	0.091838	0.214670	2797.352539
8870.687518	0.091644	0.214670	2888.355225
8870.688582	0.091348	0.214670	2985.549072
8870.689478	0.091329	0.214670	3067.380127
8870.690348	0.091091	0.214670	3146.629639
8870.691457	0.091128	0.214670	3247.690430
8870.692433	0.090894	0.214670	3336.402588
8870.693298	0.090912	0.214670	3415.041260
8871.704117	0.583044	0.186996	320.091400
8871.705171	0.284194	0.186996	619.632202
8871.706074	0.289600	0.186996	881.140625
8871.706943	0.284879	0.186996	1128.700562
8871.708076	0.269718	0.186996	1434.291016
8871.709045	0.251290	0.186996	1677.791260
8871.709918	0.246427	0.186996	1892.921997
8871.710966	0.245145	0.186996	2149.834229
8871.712003	0.244039	0.186996	2402.903076
8871.712901	0.225308	0.186996	2605.229248
8871.713842	0.091047	0.186996	2690.904785
8871.714905	0.091838	0.186996	2788.529053
8871.715836	0.091959	0.186996	2874.143066
8871.716699	0.091934	0.186996	2953.481689
8871.717763	0.091395	0.186996	3050.726318
8871.718765	0.091512	0.186996	3142.421875
8871.719644	0.091307	0.186996	3222.681152
8871.720618	0.091267	0.186996	3311.575195
8871.721668	0.091007	0.186996	3407.132568
8871.722581	0.091110	0.186996	3490.315674
8872.710706	0.535931	0.211387	292.618530
8872.711773	0.283967	0.211387	595.611633
8872.712670	0.289340	0.211387	855.149231
8872.713537	0.284586	0.211387	1101.885498
8872.714657	0.269249	0.211387	1403.444702
8872.715626	0.251023	0.211387	1646.685913
8872.716499	0.246482	0.211387	1861.864624
8872.717553	0.245134	0.211387	2120.236084
8872.718582	0.244200	0.211387	2371.518311
8872.719471	0.230797	0.211387	2576.697021
8872.720405	0.090970	0.211387	2661.663330
8872.721456	0.092010	0.211387	2758.366455
8872.722383	0.091941	0.211387	2843.595703
8872.723242	0.091791	0.211387	2922.444092
8872.724283	0.091355	0.211387	3017.544678
8872.725312	0.091212	0.211387	3111.402100
8872.726178	0.091135	0.211387	3190.325195
8872.727142	0.091187	0.211387	3278.229004
8872.728205	0.090894	0.211387	3374.848877
8872.729130	0.091058	0.211387	3459.077881
8873.742780	0.630121	0.189050	268.431488
8873.743741	0.280140	0.189050	537.646362
8873.744808	0.288988	0.189050	845.996582
8873.745732	0.284967	0.189050	1109.306152
8873.746602	0.273127	0.189050	1346.927002
8873.747694	0.252865	0.189050	1623.055542
8873.748706	0.246134	0.189050	1872.143188
8873.749601	0.244973	0.189050	2091.394043
8873.750534	0.244080	0.189050	2319.120361
8873.751409	0.264778	0.189050	2550.801025
8873.752399	0.091201	0.189050	2641.090088
8873.753320	0.092252	0.189050	2726.054443
8873.754185	0.092227	0.189050	2805.830322
8873.755213	0.091981	0.189050	2900.386963
8873.756086	0.091560	0.189050	2980.318848
8873.756995	0.091534	0.189050	3063.523682
8873.757870	0.091252	0.189050	3143.369629
8873.758851	0.091351	0.189050	3232.985352
8873.759785	0.091351	0.189050	3318.307373
8873.760657	0.091077	0.189050	3397.726318
8874.745290	0.589493	0.218566	257.019135
8874.746172	0.280192	0.218566	504.148193
8874.747047	0.289135	0.218566	757.140930
8874.748073	0.286597	0.218566	1051.189087
8874.748997	0.275182	0.218566	1305.457153
8874.749918	0.257882	0.218566	1542.966553
8874.750786	0.247222	0.218566	1757.554932
8874.751831	0.245706	0.218566	2014.317261
8874.752712	0.244633	0.218566	2229.838623
8874.753590	0.327960	0.218566	2517.787598
8874.754563	0.093175	0.218566	2608.447021
8874.755507	0.091718	0.218566	2695.028320
8874.756418	0.092252	0.218566	2779.070068
8874.757290	0.091659	0.218566	2858.996582
8874.758333	0.091586	0.218566	2954.520508
8874.759229	0.091534	0.218566	3036.535400
8874.760104	0.091461	0.218566	3116.563965
8874.761032	0.091179	0.218566	3201.178223
8874.762035	0.091029	0.218566	3292.480469
8874.762961	0.091110	0.218566	3376.847900
8875.781625	0.564562	0.182089	272.118774
8875.782510	0.280789	0.182089	520.616638
8875.783378	0.289014	0.182089	771.480530
8875.784444	0.285535	0.182089	1075.860474
8875.785398	0.273146	0.182089	1336.441528
8875.786278	0.255710	0.182089	1561.466675
8875.787213	0.246863	0.182089	1792.283447
8875.788267	0.245332	0.182089	2050.863525
8875.789152	0.244427	0.182089	2267.181885
8875.790020	0.307427	0.182089	2534.028320
8875.791083	0.090959	0.182089	2630.718262
8875.792028	0.091956	0.182089	2717.616211
8875.792901	0.092373	0.182089	2798.257812
8875.793820	0.091765	0.182089	2882.590088
8875.794910	0.091549	0.182089	2982.378662
8875.795797	0.091787	0.182089	3063.793945
8875.796662	0.091351	0.182089	3142.812744
8875.797682	0.091113	0.182089	3235.748291
8875.798643	0.091201	0.182089	3323.392578
8875.799519	0.091205	0.182089	3403.288086
8876.781067	0.579338	0.217522	287.931183
8876.782002	0.281554	0.217522	551.184143
8876.782881	0.288995	0.217522	805.211060
8876.783842	0.285787	0.217522	1079.852661
8876.784868	0.272358	0.217522	1359.292358
8876.785756	0.254590	0.217522	1585.368164
8876.786620	0.246643	0.217522	1798.467773
8876.787671	0.245208	0.217522	2056.180908
8876.788609	0.244204	0.217522	2285.244385
8876.789483	0.299659	0.217522	2547.146729
8876.790411	0.090667	0.217522	2631.285156
8876.791479	0.091732	0.217522	2729.255127
8876.792369	0.091941	0.217522	2811.082520
8876.793232	0.091937	0.217522	2890.424316
8876.794251	0.091454	0.217522	2983.615723
8876.795215	0.091329	0.217522	3071.657227
8876.796093	0.091512	0.217522	3152.005127
8876.796983	0.091238	0.217522	3233.206787
8876.798075	0.091069	0.217522	3332.654541
8876.798960	0.091084	0.217522	3413.263916
8877.818313	0.590237	0.181453	257.343262
8877.819191	0.279770	0.181453	502.981750
8877.820181	0.288915	0.181453	789.007446
8877.821244	0.285048	0.181453	1092.013062
8877.822148	0.272842	0.181453	1338.662109
8877.823015	0.255311	0.181453	1560.016968
8877.824139	0.246559	0.181453	1837.149170
8877.825105	0.245321	0.181453	2074.129395
8877.825980	0.244362	0.181453	2287.945801
8877.827026	0.247042	0.181453	2546.352051
8877.828064	0.091014	0.181453	2640.824951
8877.828959	0.092172	0.181453	2723.318604
8877.829893	0.092010	0.181453	2809.256348
8877.830949	0.091750	0.181453	2906.144775
8877.831895	0.091791	0.181453	2992.978760
8877.832754	0.091827	0.181453	3071.858398
8877.833816	0.091241	0.181453	3168.756836
8877.834818	0.091080	0.181453	3260.019287
8877.835702	0.091318	0.181453	3340.744629
8877.836678	0.091095	0.181453	3429.653320
8878.820877	0.578990	0.213635	291.232208
8878.821802	0.281532	0.213635	551.649292
8878.822671	0.288970	0.213635	802.763977
8878.823741	0.284484	0.213635	1107.161499
8878.824762	0.270205	0.213635	1383.040894
8878.825660	0.252627	0.213635	1609.899902
8878.826640	0.246255	0.213635	1851.229736
8878.827710	0.244929	0.213635	2113.303955
8878.828624	0.243984	0.213635	2336.305664
8878.829494	0.265748	0.213635	2567.506592
8878.830583	0.091099	0.213635	2666.712891
8878.831573	0.091772	0.213635	2757.567627
8878.832466	0.092164	0.213635	2839.870361
8878.833476	0.091670	0.213635	2932.457031
8878.834516	0.091578	0.213635	3027.698486
8878.835395	0.091597	0.213635	3108.211914
8878.836257	0.091300	0.213635	3186.912598
8878.837384	0.091007	0.213635	3289.477539
8878.838335	0.091340	0.213635	3376.342285
8878.839196	0.091289	0.213635	3454.942139
8879.850077	0.499797	0.182540	293.381042
8879.851135	0.284513	0.182540	594.395752
8879.852021	0.289285	0.182540	850.701965
8879.852936	0.283997	0.182540	1110.558838
8879.854031	0.268033	0.182540	1404.055420
8879.854969	0.250452	0.182540	1638.979004
8879.855844	0.246281	0.182540	1854.474487
8879.856878	0.245017	0.182540	2107.822266
8879.857915	0.243981	0.182540	2360.830322
8879.858812	0.226831	0.182540	2564.297852
8879.859772	0.090861	0.182540	2651.523926
8879.860825	0.091783	0.182540	2748.171875
8879.861759	0.091736	0.182540	2833.853027
8879.862623	0.091794	0.182540	2913.163330
8879.863694	0.091373	0.182540	3011.024170
8879.864681	0.091252	0.182540	3101.090332
8879.865572	0.091326	0.182540	3182.461426
8879.866544	0.091172	0.182540	3271.080566
8879.867607	0.091095	0.182540	3367.914551
8879.868520	0.091007	0.182540	3451.003906
8880.863778	0.552568	0.206243	285.677856
8880.864741	0.282524	0.206243	557.748901
8880.865606	0.289058	0.206243	807.783752
8880.866714	0.284081	0.206243	1122.545288
8880.867756	0.269198	0.206243	1403.049561
8880.868647	0.251521	0.206243	1627.154785
8880.869588	0.246189	0.206243	1858.818604
8880.870663	0.244816	0.206243	2121.995361
8880.871605	0.243992	0.206243	2351.835449
8880.872481	0.246559	0.206243	2567.821045
8880.873527	0.091135	0.206243	2663.148437
8880.874543	0.092040	0.206243	2756.660889
8880.875440	0.091934	0.206243	2839.125244
8880.876415	0.091681	0.206243	2928.514160
8880.877472	0.091406	0.206243	3025.130615
8880.878393	0.091465	0.206243	3109.369629
8880.879254	0.091329	0.206243	3188.004150
8880.880335	0.091187	0.206243	3286.576660
8880.881324	0.091099	0.206243	3376.673096
8880.882222	0.091000	0.206243	3458.390869
8881.878456	0.648062	0.180812	271.537781
8881.879353	0.279990	0.180812	522.689026
8881.880450	0.289178	0.180812	839.917786
8881.881413	0.285198	0.180812	1114.563232
8881.882286	0.273303	0.180812	1353.156982
8881.883322	0.253572	0.180812	1615.857300
8881.884356	0.246226	0.180812	1870.454590
8881.885250	0.245021	0.180812	2089.503174
8881.886215	0.244131	0.180812	2325.089355
8881.887275	0.213479	0.180812	2551.377197
8881.888206	0.091285	0.180812	2636.364014
8881.889069	0.091992	0.180812	2715.753174
8881.890138	0.091981	0.180812	2814.081055
8881.891132	0.091615	0.180812	2905.146240
8881.892024	0.091901	0.180812	2987.121582
8881.892993	0.091201	0.180812	3075.495605
8881.894061	0.091055	0.180812	3172.741943
8881.894970	0.091381	0.180812	3255.806885
8881.895828	0.091113	0.180812	3333.982178
8881.896899	0.090941	0.180812	3431.380127
8882.910740	0.565463	0.202964	289.516876
8882.911624	0.281565	0.202964	538.420288
8882.912486	0.289431	0.202964	787.909912
8882.913621	0.285264	0.202964	1111.684204
8882.914583	0.272117	0.202964	1373.460449
8882.915447	0.254897	0.202964	1593.691895
8882.916475	0.246738	0.202964	1847.338867
8882.917527	0.245365	0.202964	2105.462891
8882.918405	0.244299	0.202964	2319.957764
8882.919333	0.220624	0.202964	2524.696533
8882.920410	0.090952	0.202964	2622.652100
8882.921350	0.092131	0.202964	2709.255615
8882.922218	0.092073	0.202964	2789.174805
8882.923252	0.091677	0.202964	2883.968994
8882.924278	0.091454	0.202964	2977.800537
8882.925168	0.091600	0.202964	3059.324951
8882.926114	0.091161	0.202964	3145.563232
8882.927172	0.091117	0.202964	3241.964844
8882.928103	0.091069	0.202964	3326.750488
8882.928962	0.091007	0.202964	3404.925537
8883.904952	0.658143	0.202960	275.762054
8883.905855	0.280170	0.202960	528.755310
8883.906935	0.289402	0.202960	841.309326
8883.907897	0.285527	0.202960	1115.986572
8883.908774	0.273812	0.202960	1356.119873
8883.909813	0.253905	0.202960	1619.927246
8883.910846	0.246533	0.202960	1874.596069
8883.911744	0.245336	0.202960	2094.907471
8883.912704	0.244332	0.202960	2329.466553
8883.913766	0.230925	0.202960	2574.709229
8883.914694	0.091066	0.202960	2659.218262
8883.915555	0.092087	0.202960	2738.505615
8883.916652	0.091776	0.202960	2839.184082
8883.917649	0.091813	0.202960	2930.721436
8883.918540	0.091835	0.202960	3012.546143
8883.919537	0.091355	0.202960	3103.626953
8883.920566	0.091146	0.202960	3197.416504
8883.921462	0.091260	0.202960	3279.185303
8883.922322	0.091066	0.202960	3357.501709
8883.923399	0.090948	0.202960	3455.453125
8884.958651	0.644381	0.189066	273.861969
8884.959525	0.279760	0.189066	518.371826
8884.960479	0.289215	0.189066	794.283020
8884.961397	0.287179	0.189066	1057.913330
8884.962320	0.276522	0.189066	1313.143311
8884.963185	0.259827	0.189066	1537.893311
8884.964240	0.247200	0.189066	1798.688965
8884.965113	0.245874	0.189066	2013.336914
8884.966022	0.244878	0.189066	2235.930908
8884.966903	0.330927	0.189066	2527.477051
8884.967898	0.090894	0.189066	2617.916016
8884.968821	0.091736	0.189066	2702.588135
8884.969698	0.092325	0.189066	2783.557617
8884.970717	0.091945	0.189066	2877.249023
8884.971604	0.091743	0.189066	2958.625244
8884.972482	0.091871	0.189066	3039.288330
8884.973443	0.091494	0.189066	3127.214111
8884.974415	0.091172	0.189066	3215.833252
8884.975333	0.091366	0.189066	3299.707275
8884.976194	0.091421	0.189066	3378.420654
8885.935566	0.579221	0.225422	251.961212
8885.936436	0.280499	0.225422	495.995605
8885.937477	0.289596	0.225422	797.464966
8885.938380	0.286758	0.225422	1056.407227
8885.939258	0.276211	0.225422	1298.920410
8885.940253	0.257399	0.225422	1555.032104
8885.941206	0.246958	0.225422	1790.383057
8885.942133	0.245760	0.225422	2018.203003
8885.943004	0.244647	0.225422	2231.290771
8885.944050	0.294133	0.225422	2538.954102
8885.944929	0.090872	0.225422	2618.830322
8885.945796	0.091681	0.225422	2698.317627
8885.946800	0.091838	0.225422	2790.523437
8885.947744	0.091985	0.225422	2877.357178
8885.948646	0.091915	0.225422	2960.264648
8885.949523	0.091769	0.225422	3040.745850
8885.950544	0.091410	0.225422	3134.075439
8885.951455	0.091285	0.225422	3217.236328
8885.952333	0.091230	0.225422	3297.336670
8885.953265	0.091099	0.225422	3382.240723
8886.995385	0.632450	0.193175	268.158783
8886.996512	0.283872	0.193175	588.082642
8886.997482	0.289893	0.193175	869.278442
8886.998351	0.285754	0.193175	1117.598999
8886.999418	0.270806	0.193175	1406.548584
8887.000460	0.251261	0.193175	1668.362549
8887.001354	0.246471	0.193175	1888.707520
8887.002281	0.245251	0.193175	2116.055664
8887.003355	0.244237	0.193175	2378.366211
8887.004316	0.211263	0.193175	2581.390381
8887.005178	0.091011	0.193175	2659.841553
8887.006249	0.091897	0.193175	2758.263184
8887.007256	0.091886	0.193175	2850.792480
8887.008145	0.091853	0.193175	2932.449707
8887.009116	0.091549	0.193175	3021.343750
8887.010145	0.091150	0.193175	3115.136963
8887.011057	0.091377	0.193175	3198.472656
8887.011914	0.091263	0.193175	3276.685303
8887.012983	0.091018	0.193175	3373.983643
8887.013988	0.090970	0.193175	3465.408936
8887.978426	0.630450	0.224024	266.680542
8887.979491	0.282737	0.224024	567.795288
8887.980523	0.289761	0.224024	866.828369
8887.981402	0.285604	0.224024	1117.874512
8887.982396	0.272450	0.224024	1388.689819
8887.983454	0.252349	0.224024	1655.674683
8887.984359	0.246654	0.224024	1878.896606
8887.985220	0.245446	0.224024	2090.225342
8887.986293	0.244460	0.224024	2352.531494
8887.987296	0.214347	0.224024	2567.521484
8887.988187	0.090996	0.224024	2648.599121
8887.989186	0.091901	0.224024	2740.407959
8887.990238	0.091663	0.224024	2836.836914
8887.991137	0.091692	0.224024	2919.267822
8887.991998	0.091469	0.224024	2998.022217
8887.993121	0.091311	0.224024	3100.564453
8887.994087	0.091208	0.224024	3188.671875
8887.994958	0.091373	0.224024	3268.258057
8887.996012	0.090919	0.224024	3364.086914
8887.997039	0.091216	0.224024	3457.765625
8889.022978	0.582843	0.199040	286.175903
8889.023933	0.282052	0.199040	555.535583
8889.024797	0.289303	0.199040	805.493347
8889.025881	0.285066	0.199040	1114.504761
8889.026917	0.270802	0.199040	1395.055664
8889.027816	0.253033	0.199040	1622.532715
8889.028752	0.246530	0.199040	1853.284424
8889.029820	0.245068	0.199040	2115.017578
8889.030768	0.244080	0.199040	2346.405029
8889.031636	0.265741	0.199040	2577.068115
8889.032690	0.091165	0.199040	2673.155518
8889.033709	0.091985	0.199040	2766.888184
8889.034586	0.092051	0.199040	2847.616699
8889.035550	0.091758	0.199040	2936.071289
8889.036607	0.091597	0.199040	3032.888916
8889.037523	0.091626	0.199040	3116.818359
8889.038381	0.091560	0.199040	3195.376953
8889.039453	0.091157	0.199040	3293.097412
8889.040462	0.091234	0.199040	3385.152588
8889.041331	0.091267	0.199040	3464.463623
8890.025517	0.636606	0.210859	342.494263
8890.026587	0.284227	0.210859	646.617432
8890.027503	0.289427	0.210859	911.733032
8890.028370	0.284685	0.210859	1158.554932
8890.029476	0.269385	0.210859	1456.494507
8890.030471	0.250609	0.210859	1705.850586
8890.031365	0.246573	0.210859	1926.287354
8890.032372	0.245277	0.210859	2173.281494
8890.033417	0.244241	0.210859	2428.513184
8890.034307	0.213256	0.210859	2618.310791
8890.035192	0.091055	0.210859	2698.894287
8890.036271	0.091937	0.210859	2798.094482
8890.037227	0.091879	0.210859	2885.930420
8890.038084	0.091981	0.210859	2964.758301
8890.039092	0.091359	0.210859	3056.847900
8890.040154	0.091494	0.210859	3154.014648
8890.041026	0.091377	0.210859	3233.695312
8890.041949	0.090989	0.210859	3317.677979
8890.043039	0.090974	0.210859	3416.839844
8890.043974	0.090912	0.210859	3501.842529
8891.048372	0.645564	0.211081	270.491302
8891.049492	0.282979	0.211081	587.427246
8891.050454	0.289025	0.211081	865.468994
8891.051324	0.284656	0.211081	1113.119507
8891.052377	0.270051	0.211081	1397.483521
8891.053410	0.250752	0.211081	1656.510254
8891.054303	0.246299	0.211081	1876.455078
8891.055251	0.245116	0.211081	2108.824951
8891.056312	0.244087	0.211081	2367.801270
8891.057254	0.232284	0.211081	2586.612793
8891.058111	0.091091	0.211081	2664.677979
8891.059165	0.091871	0.211081	2761.510254
8891.060177	0.091637	0.211081	2854.246826
8891.061051	0.091838	0.211081	2934.513672
8891.062024	0.091465	0.211081	3023.509033
8891.063071	0.091227	0.211081	3119.023437
8891.063994	0.091311	0.211081	3203.303467
8891.064851	0.091132	0.211081	3281.403320
8891.065906	0.090945	0.211081	3377.350098
8891.066917	0.090916	0.211081	3469.265625
8892.074424	0.644030	0.189787	271.136444
8892.075419	0.281111	0.189787	550.841736
8892.076467	0.289109	0.189787	853.827881
8892.077369	0.284985	0.189787	1110.884644
8892.078244	0.273040	0.189787	1349.794189
8892.079349	0.252858	0.189787	1629.201904
8892.080319	0.246368	0.189787	1868.179199
8892.081190	0.245288	0.189787	2081.825195
8892.082228	0.244263	0.189787	2335.369873
8892.083279	0.219371	0.189787	2565.929199
8892.084172	0.091333	0.189787	2647.489502
8892.085105	0.091941	0.189787	2733.270264
8892.086158	0.091890	0.189787	2830.030029
8892.087095	0.091901	0.189787	2916.140869
8892.087954	0.091531	0.189787	2994.765869
8892.089011	0.091318	0.189787	3091.289307
8892.090041	0.091249	0.189787	3185.275635
8892.090921	0.091494	0.189787	3265.790527
8892.091883	0.091044	0.189787	3353.374512
8892.092942	0.090948	0.189787	3449.688965
8893.077948	0.633757	0.216898	269.980621
8893.079028	0.283286	0.216898	575.929626
8893.080042	0.289717	0.216898	869.702515
8893.080937	0.285289	0.216898	1125.036499
8893.081917	0.271501	0.216898	1391.107910
8893.082989	0.251440	0.216898	1660.652100
8893.083902	0.246687	0.216898	1885.877319
8893.084768	0.245574	0.216898	2098.544189
8893.085871	0.244486	0.216898	2368.212402
8893.086856	0.214808	0.216898	2579.798584
8893.087722	0.091007	0.216898	2658.610840
8893.088748	0.091849	0.216898	2752.848389
8893.089801	0.091827	0.216898	2849.542725
8893.090681	0.092047	0.216898	2930.544189
8893.091570	0.091597	0.216898	3011.973633
8893.092644	0.091165	0.216898	3109.884277
8893.093599	0.091414	0.216898	3197.184326
8893.094458	0.091154	0.216898	3275.485352
8893.095476	0.091055	0.216898	3368.178955
8893.096514	0.091077	0.216898	3462.716553
8894.114235	0.630527	0.185690	267.974121
8894.115222	0.281005	0.185690	545.325684
8894.116288	0.289230	0.185690	853.644531
8894.117186	0.284784	0.185690	1109.380493
8894.118054	0.272527	0.185690	1345.933838
8894.119168	0.252616	0.185690	1627.348022
8894.120135	0.246350	0.185690	1865.568604
8894.121012	0.245259	0.185690	2080.660645
8894.122063	0.244230	0.185690	2337.346191
8894.123101	0.214991	0.185690	2560.507324
8894.123992	0.091073	0.185690	2641.653320
8894.124929	0.091750	0.185690	2727.623535
8894.125980	0.091714	0.185690	2824.014893
8894.126911	0.091908	0.185690	2909.581299
8894.127773	0.091523	0.185690	2988.474609
8894.128830	0.091245	0.185690	3084.920654
8894.129846	0.091055	0.185690	3177.432129
8894.130729	0.091198	0.185690	3257.959473
8894.131704	0.091029	0.185690	3346.712891
8894.132756	0.090850	0.185690	3442.286621
8895.115780	0.582836	0.219939	289.669342
8895.116729	0.282180	0.219939	557.458313
8895.117595	0.289321	0.219939	808.010559
8895.118644	0.285304	0.219939	1107.294434
8895.119685	0.271117	0.219939	1389.527100
8895.120581	0.253370	0.219939	1616.546875
8895.121532	0.246782	0.219939	1851.236816
8895.122589	0.245581	0.219939	2110.815918
8895.123527	0.244384	0.219939	2340.047607
8895.124403	0.254326	0.219939	2562.837402
8895.125478	0.090992	0.219939	2660.654297
8895.126478	0.091978	0.219939	2752.631836
8895.127358	0.091996	0.219939	2833.588135
8895.128339	0.091725	0.219939	2923.570312
8895.129396	0.091362	0.219939	3020.140381
8895.130303	0.091567	0.219939	3103.191895
8895.131159	0.091238	0.219939	3181.291504
8895.132235	0.091047	0.219939	3279.258545
8895.133233	0.090948	0.219939	3370.025146
8895.134102	0.091150	0.219939	3449.234375
8896.145922	0.593082	0.185449	292.982635
8896.146828	0.281646	0.185449	548.153442
8896.147699	0.289292	0.185449	800.126770
8896.148771	0.285601	0.185449	1106.290527
8896.149778	0.271970	0.185449	1380.164551
8896.150674	0.254443	0.185449	1608.145752
8896.151658	0.246870	0.185449	1851.065918
8896.152723	0.245387	0.185449	2112.403076
8896.153630	0.244446	0.185449	2334.115479
8896.154498	0.233020	0.185449	2536.376953
8896.155612	0.091088	0.185449	2637.848633
8896.156577	0.092087	0.185449	2726.712891
8896.157446	0.092095	0.185449	2806.743164
8896.158487	0.091556	0.185449	2902.053467
8896.159527	0.091688	0.185449	2997.409180
8896.160408	0.091696	0.185449	3078.192871
8896.161324	0.091271	0.185449	3161.796875
8896.162396	0.091201	0.185449	3259.564453
8896.163340	0.091036	0.185449	3345.502686
8896.164199	0.091062	0.185449	3423.724854
8897.159640	0.577683	0.209800	262.845825
8897.160516	0.280869	0.209800	508.887207
8897.161491	0.289523	0.209800	791.171875
8897.162554	0.285194	0.209800	1094.333130
8897.163468	0.272520	0.209800	1343.416016
8897.164337	0.254960	0.209800	1564.975952
8897.165437	0.247002	0.209800	1836.678101
8897.166412	0.245614	0.209800	2076.151855
8897.167296	0.244662	0.209800	2292.432861
8897.168320	0.255959	0.209800	2554.535400
8897.169371	0.091143	0.209800	2650.326172
8897.170266	0.092212	0.209800	2732.855957
8897.171157	0.091794	0.209800	2814.644775
8897.172262	0.091615	0.209800	2915.879395
8897.173208	0.091505	0.209800	3002.443359
8897.174065	0.091527	0.209800	3080.882080
8897.175120	0.091238	0.209800	3177.137939
8897.176154	0.091194	0.209800	3271.432373
8897.177029	0.091198	0.209800	3351.230225
8897.177976	0.091044	0.209800	3437.448730
8898.175537	0.650299	0.187060	353.112396
8898.176487	0.283488	0.187060	622.425537
8898.177402	0.289871	0.187060	887.657166
8898.178285	0.286304	0.187060	1140.463379
8898.179317	0.273021	0.187060	1422.221313
8898.180221	0.255092	0.187060	1652.824097
8898.181097	0.247035	0.187060	1869.226685
8898.182028	0.245804	0.187060	2098.070557
8898.183033	0.244698	0.187060	2343.992432
8898.183958	0.295214	0.187060	2617.064941
8898.184830	0.091018	0.187060	2696.432617
8898.185885	0.091835	0.187060	2793.318359
8898.186777	0.092142	0.187060	2875.509277
8898.187653	0.091985	0.187060	2956.087891
8898.188508	0.091882	0.187060	3034.647217
8898.189566	0.091494	0.187060	3131.447998
8898.190461	0.091432	0.187060	3213.279541
8898.191334	0.091454	0.187060	3293.118652
8898.192310	0.091143	0.187060	3382.073730
8898.193250	0.090948	0.187060	3467.565430
8899.204536	0.647710	0.199564	274.629028
8899.205539	0.281147	0.199564	556.619995
8899.206470	0.289567	0.199564	826.206543
8899.207376	0.286373	0.199564	1085.660767
8899.208256	0.275577	0.199564	1328.168823
8899.209289	0.256044	0.199564	1592.661987
8899.210197	0.246735	0.199564	1816.697021
8899.211073	0.245614	0.199564	2031.854858
8899.212036	0.244508	0.199564	2267.316162
8899.213015	0.301534	0.199564	2562.518311
8899.213901	0.090677	0.199564	2642.858643
8899.214788	0.091597	0.199564	2724.104980
8899.215876	0.091893	0.199564	2824.084961
8899.216758	0.092190	0.199564	2905.396484
8899.217625	0.091677	0.199564	2984.880615
8899.218670	0.091337	0.199564	3080.327393
8899.219623	0.091399	0.199564	3167.430664
8899.220485	0.091326	0.199564	3246.153320
8899.221361	0.091282	0.199564	3326.116211
8899.222464	0.091044	0.199564	3426.537354
8900.202957	0.603666	0.199040	263.801941
8900.203832	0.279968	0.199040	508.774170
8900.204791	0.288911	0.199040	785.839966
8900.205837	0.285648	0.199040	1084.627930
8900.206733	0.274274	0.199040	1330.377197
8900.207600	0.257347	0.199040	1553.497437
8900.208671	0.246775	0.199040	1817.793335
8900.209629	0.245511	0.199040	2052.993408
8900.210513	0.244362	0.199040	2269.009033
8900.211458	0.269282	0.199040	2523.480713
8900.212497	0.091238	0.199040	2618.276855
8900.213380	0.092021	0.199040	2699.531738
8900.214241	0.092073	0.199040	2778.806396
8900.215282	0.091582	0.199040	2874.143311
8900.216226	0.091615	0.199040	2960.627930
8900.217089	0.091941	0.199040	3039.972900
8900.217979	0.091531	0.199040	3121.435303
8900.219075	0.091249	0.199040	3221.443848
8900.219967	0.091490	0.199040	3303.053467
8900.220864	0.091029	0.199040	3384.706543
8901.248542	0.552865	0.197546	281.961121
8901.249488	0.282938	0.197546	549.620728
8901.250352	0.289874	0.197546	800.072083
8901.251403	0.285472	0.197546	1100.103638
8901.252440	0.270864	0.197546	1380.989868
8901.253329	0.253297	0.197546	1606.171021
8901.254298	0.246914	0.197546	1845.430786
8901.255341	0.245603	0.197546	2101.594727
8901.256271	0.244611	0.197546	2329.082520
8901.257139	0.260435	0.197546	2555.139648
8901.258208	0.091091	0.197546	2652.516357
8901.259213	0.091813	0.197546	2744.788086
8901.260082	0.092080	0.197546	2824.805664
8901.261051	0.091857	0.197546	2913.814697
8901.262111	0.091564	0.197546	3010.872314
8901.263023	0.091359	0.197546	3094.191406
8901.263890	0.091351	0.197546	3173.393066
8901.264976	0.091080	0.197546	3272.306396
8901.265967	0.091007	0.197546	3362.494385
8901.266863	0.091014	0.197546	3444.043213
8902.235656	0.551338	0.202609	270.706909
8902.236528	0.281016	0.202609	515.752563
8902.237485	0.289336	0.202609	792.647095
8902.238543	0.285117	0.202609	1094.301025
8902.239483	0.272307	0.202609	1350.269775
8902.240354	0.254879	0.202609	1572.269531
8902.241412	0.246903	0.202609	1833.492920
8902.242441	0.245563	0.202609	2086.177002
8902.243341	0.244471	0.202609	2306.201172
8902.244335	0.235979	0.202609	2540.764404
8902.245395	0.091150	0.202609	2637.383301
8902.246312	0.092080	0.202609	2721.820801
8902.247173	0.092109	0.202609	2801.126953
8902.248256	0.091732	0.202609	2900.472900
8902.249242	0.091406	0.202609	2990.599365
8902.250136	0.091512	0.202609	3072.411621
8902.251128	0.091198	0.202609	3162.879639
8902.252181	0.091274	0.202609	3258.991699
8902.253063	0.091183	0.202609	3339.415039
8902.253939	0.091062	0.202609	3419.185303
8903.290298	0.645407	0.184160	271.070740
8903.291381	0.283081	0.184160	577.647522
8903.292382	0.289607	0.184160	867.544067
8903.293284	0.285136	0.184160	1124.736328
8903.294275	0.271000	0.184160	1393.297119
8903.295330	0.251334	0.184160	1658.454712
8903.296237	0.246548	0.184160	1882.073608
8903.297101	0.245449	0.184160	2094.141602
8903.298222	0.244299	0.184160	2368.001221
8903.299200	0.226047	0.184160	2589.075439
8903.300065	0.091234	0.184160	2667.992920
8903.301158	0.092007	0.184160	2768.556396
8903.302181	0.091919	0.184160	2862.589355
8903.303066	0.092117	0.184160	2944.112549
8903.303993	0.091545	0.184160	3028.975098
8903.305055	0.091333	0.184160	3125.970703
8903.305984	0.091476	0.184160	3210.951660
8903.306842	0.091377	0.184160	3289.353027
8903.307903	0.091066	0.184160	3385.973633
8903.308922	0.090798	0.184160	3478.497070
8904.268302	0.579741	0.224084	292.769318
8904.269235	0.282360	0.224084	556.210815
8904.270098	0.289783	0.224084	806.293335
8904.271152	0.285839	0.224084	1107.567261
8904.272183	0.271630	0.224084	1387.617432
8904.273078	0.253934	0.224084	1614.888672
8904.274048	0.246940	0.224084	1854.420166
8904.275113	0.245515	0.224084	2115.893799
8904.276039	0.244526	0.224084	2342.325195
8904.276910	0.254692	0.224084	2564.162354
8904.278006	0.090974	0.224084	2663.870117
8904.279001	0.091908	0.224084	2755.318604
8904.279892	0.091992	0.224084	2837.283691
8904.280884	0.091721	0.224084	2928.270996
8904.281932	0.091545	0.224084	3024.210693
8904.282832	0.091458	0.224084	3106.522461
8904.283698	0.091135	0.224084	3185.445557
8904.284791	0.091077	0.224084	3284.992432
8904.285753	0.091132	0.224084	3372.661133
8904.286615	0.091146	0.224084	3451.229248
8905.329100	0.603948	0.185787	263.925171
8905.329971	0.280411	0.185787	508.163513
8905.331029	0.289673	0.185787	814.637390
8905.332063	0.285450	0.185787	1109.793091
8905.332955	0.273431	0.185787	1353.693848
8905.333925	0.255015	0.185787	1601.058105
8905.334993	0.246779	0.185787	1864.617676
8905.335917	0.245720	0.185787	2091.663086
8905.336784	0.244808	0.185787	2303.911865
8905.337855	0.253228	0.185787	2575.118652
8905.338833	0.091230	0.185787	2664.342041
8905.339720	0.092329	0.185787	2746.238037
8905.340713	0.091897	0.185787	2837.491699
8905.341762	0.091886	0.185787	2933.880127
8905.342659	0.091827	0.185787	3016.249268
8905.343516	0.091520	0.185787	3094.681641
8905.344606	0.091198	0.185787	3194.086914
8905.345622	0.090970	0.185787	3286.512939
8905.346504	0.091099	0.185787	3366.861816
8905.347491	0.090992	0.185787	3456.671387
8906.304081	0.501083	0.227601	288.122589
8906.305133	0.284641	0.227601	587.565063
8906.306023	0.289735	0.227601	845.429321
8906.306911	0.284868	0.227601	1098.392212
8906.308022	0.269568	0.227601	1397.882080
8906.308975	0.251345	0.227601	1637.414062
8906.309901	0.246581	0.227601	1865.747925
8906.310778	0.245479	0.227601	2081.032471
8906.311674	0.244508	0.227601	2300.111816
8906.312654	0.257703	0.227601	2552.660400
8906.313574	0.091080	0.227601	2636.454346
8906.314451	0.091838	0.227601	2716.996582
8906.315474	0.092080	0.227601	2811.194580
8906.316368	0.091780	0.227601	2893.245605
8906.317286	0.091384	0.227601	2977.136475
8906.318149	0.091454	0.227601	3056.061035
8906.319153	0.091490	0.227601	3147.917480
8906.320077	0.091022	0.227601	3232.021484
8906.320938	0.091293	0.227601	3310.624512
8906.321962	0.090923	0.227601	3403.729492
8907.365834	0.589860	0.192917	257.178802
8907.366709	0.279781	0.192917	501.987610
8907.367718	0.289164	0.192917	793.753906
8907.368732	0.285352	0.192917	1083.100342
8907.369625	0.273552	0.192917	1327.382446
8907.370489	0.256040	0.192917	1548.601074
8907.371606	0.246823	0.192917	1824.301758
8907.372514	0.245603	0.192917	2047.309326
8907.373382	0.244687	0.192917	2259.697998
8907.374474	0.246823	0.192917	2529.228271
8907.375438	0.090861	0.192917	2616.817871
8907.376371	0.091912	0.192917	2702.571289
8907.377232	0.091963	0.192917	2781.751221
8907.378316	0.091670	0.192917	2881.121338
8907.379196	0.091842	0.192917	2961.942383
8907.380057	0.091633	0.192917	3040.838623
8907.381131	0.091208	0.192917	3138.796631
8907.382102	0.091190	0.192917	3227.342285
8907.382967	0.091139	0.192917	3306.177490
8907.383828	0.091322	0.192917	3384.805664
8908.341755	0.551133	0.227142	262.339233
8908.342633	0.280906	0.227142	508.974518
8908.343494	0.289208	0.227142	757.982422
8908.344586	0.286102	0.227142	1070.406128
8908.345517	0.273988	0.227142	1325.489014
8908.346388	0.256509	0.227142	1548.908203
8908.347351	0.247200	0.227142	1786.961548
8908.348387	0.245848	0.227142	2041.660400
8908.349286	0.244805	0.227142	2261.739746
8908.350155	0.298451	0.227142	2521.093506
8908.351196	0.091099	0.227142	2615.927246
8908.352140	0.091970	0.227142	2702.747070
8908.353013	0.092087	0.227142	2783.139404
8908.353960	0.091780	0.227142	2870.054932
8908.355009	0.091630	0.227142	2966.174316
8908.355892	0.091469	0.227142	3046.940918
8908.356753	0.091344	0.227142	3125.588135
8908.357782	0.091110	0.227142	3219.339844
8908.358735	0.091073	0.227142	3306.132324
8908.359594	0.091187	0.227142	3384.461426
8909.402558	0.644165	0.191987	271.837646
8909.403533	0.280430	0.191987	545.256592
8909.404582	0.288981	0.191987	848.397339
8909.405502	0.284612	0.191987	1110.240234
8909.406364	0.272241	0.191987	1344.912109
8909.407432	0.252605	0.191987	1614.694214
8909.408435	0.246522	0.191987	1861.955933
8909.409327	0.245464	0.191987	2080.909668
8909.410330	0.244548	0.191987	2326.191650
8909.411387	0.242216	0.191987	2582.213623
8909.412294	0.090952	0.191987	2664.707275
8909.413153	0.092168	0.191987	2743.879639
8909.414253	0.091820	0.191987	2844.881836
8909.415227	0.091886	0.191987	2934.378906
8909.416094	0.091703	0.191987	3013.885254
8909.417169	0.091381	0.191987	3112.119385
8909.418204	0.091176	0.191987	3206.486084
8909.419089	0.091688	0.191987	3287.630127
8909.420003	0.091183	0.191987	3370.971191
8909.421064	0.091000	0.191987	3467.521973
8910.378442	0.600970	0.227460	262.023102
8910.379322	0.280082	0.227460	508.495056
8910.380344	0.289405	0.227460	804.267456
8910.381390	0.285286	0.227460	1102.676270
8910.382278	0.272992	0.227460	1345.093140
8910.383178	0.254912	0.227460	1574.514038
8910.384283	0.246775	0.227460	1847.200317
8910.385237	0.245581	0.227460	2081.484619
8910.386104	0.244526	0.227460	2293.489014
8910.387158	0.238733	0.227460	2545.113525
8910.388185	0.091007	0.227460	2638.577881
8910.389061	0.092084	0.227460	2719.243164
8910.390015	0.091908	0.227460	2806.923340
8910.391069	0.091644	0.227460	2903.516357
8910.391983	0.091479	0.227460	2987.128662
8910.392845	0.091439	0.227460	3065.949219
8910.393866	0.091143	0.227460	3159.005859
8910.394878	0.091051	0.227460	3251.149414
8910.395768	0.091296	0.227460	3332.403320
8910.396736	0.091077	0.227460	3420.565430
8911.439294	0.645864	0.193316	275.138184
8911.440325	0.281854	0.193316	565.729919
8911.441361	0.289438	0.193316	865.588196
8911.442246	0.285161	0.193316	1117.955811
8911.443193	0.272571	0.193316	1376.080322
8911.444250	0.252664	0.193316	1643.145752
8911.445193	0.246394	0.193316	1875.495361
8911.446056	0.245350	0.193316	2087.232666
8911.447134	0.244226	0.193316	2350.508301
8911.448159	0.233086	0.193316	2589.421387
8911.449030	0.091110	0.193316	2668.777832
8911.450008	0.091816	0.193316	2758.574219
8911.451071	0.091926	0.193316	2856.291748
8911.451982	0.092095	0.193316	2940.189941
8911.452850	0.091520	0.193316	3019.629150
8911.453937	0.091311	0.193316	3118.884277
8911.454935	0.091260	0.193316	3209.961426
8911.455819	0.091348	0.193316	3290.712646
8911.456797	0.090967	0.193316	3379.678223
8911.457854	0.090831	0.193316	3475.687012
8912.415173	0.631406	0.237358	275.924530
8912.416041	0.279796	0.237358	518.787598
8912.417142	0.289069	0.237358	837.052124
8912.418140	0.284755	0.237358	1121.237305
8912.419032	0.272465	0.237358	1364.275757
8912.420009	0.253942	0.237358	1612.376709
8912.421070	0.246427	0.237358	1873.835693
8912.421979	0.245229	0.237358	2096.749268
8912.422844	0.244351	0.237358	2308.112549
8912.423947	0.231984	0.237358	2563.990479
8912.424898	0.091282	0.237358	2650.799316
8912.425771	0.092135	0.237358	2731.233154
8912.426793	0.091875	0.237358	2825.129395
8912.427844	0.091732	0.237358	2921.540039
8912.428726	0.091516	0.237358	3002.257324
8912.429601	0.091472	0.237358	3082.295410
8912.430708	0.091256	0.237358	3183.315918
8912.431657	0.091483	0.237358	3270.133545
8912.432526	0.091208	0.237358	3349.393799
8912.433543	0.090912	0.237358	3441.851074
8913.475028	0.620380	0.189969	275.448547
8913.475903	0.280031	0.189969	520.475220
8913.476883	0.288886	0.189969	803.583008
8913.477906	0.285505	0.189969	1095.655029
8913.478794	0.273842	0.189969	1338.826294
8913.479654	0.256776	0.189969	1559.653809
8913.480728	0.246885	0.189969	1824.808105
8913.481656	0.245636	0.189969	2052.758301
8913.482535	0.244548	0.189969	2267.716309
8913.483485	0.239747	0.189969	2495.476318
8913.484529	0.091055	0.189969	2590.537354
8913.485421	0.091926	0.189969	2672.535645
8913.486284	0.091956	0.189969	2751.893311
8913.487339	0.091696	0.189969	2848.632080
8913.488292	0.091589	0.189969	2935.916748
8913.489168	0.091487	0.189969	3016.059082
8913.490107	0.091296	0.189969	3101.786377
8913.491151	0.091058	0.189969	3196.851318
8913.492026	0.091238	0.189969	3276.684326
8913.492887	0.091150	0.189969	3355.164307
8914.451906	0.644744	0.231553	275.305542
8914.452773	0.279598	0.231553	517.717346
8914.453806	0.289336	0.231553	816.601379
8914.454769	0.285985	0.231553	1092.005005
8914.455648	0.274607	0.231553	1333.384521
8914.456547	0.257058	0.231553	1564.479736
8914.457651	0.246815	0.231553	1836.963745
8914.458546	0.245537	0.231553	2056.719482
8914.459412	0.244629	0.231553	2268.568115
8914.460440	0.266224	0.231553	2542.246826
8914.461418	0.090897	0.231553	2631.144287
8914.462296	0.092051	0.231553	2711.964844
8914.463168	0.091879	0.231553	2792.083008
8914.464275	0.091677	0.231553	2893.569824
8914.465144	0.091567	0.231553	2973.141846
8914.466005	0.091483	0.231553	3051.908936
8914.467058	0.091278	0.231553	3148.024658
8914.468025	0.091157	0.231553	3236.173584
8914.468952	0.091040	0.231553	3320.567627
8914.469815	0.090901	0.231553	3399.015137
8915.511736	0.644048	0.197554	271.144135
8915.512624	0.280027	0.197554	519.807983
8915.513743	0.289358	0.197554	843.599487
8915.514708	0.284985	0.197554	1118.610352
8915.515578	0.273021	0.197554	1356.138794
8915.516635	0.253187	0.197554	1623.757812
8915.517655	0.246453	0.197554	1875.139526
8915.518552	0.245369	0.197554	2095.235107
8915.519495	0.244402	0.197554	2325.706055
8915.520560	0.225773	0.197554	2566.154053
8915.521485	0.091073	0.197554	2650.396484
8915.522343	0.091853	0.197554	2729.206299
8915.523403	0.091875	0.197554	2826.593750
8915.524418	0.091655	0.197554	2919.623779
8915.525291	0.091458	0.197554	2999.466309
8915.526274	0.091384	0.197554	3089.297119
8915.527321	0.091289	0.197554	3184.876709
8915.528224	0.091044	0.197554	3267.089111
8915.529092	0.091161	0.197554	3346.216797
8915.530138	0.091014	0.197554	3441.417969
8916.490769	0.567341	0.224612	287.642029
8916.491637	0.281180	0.224612	531.706604
8916.492527	0.289156	0.224612	789.055908
8916.493625	0.285110	0.224612	1102.106445
8916.494588	0.272032	0.224612	1364.073730
8916.495469	0.254509	0.224612	1588.296387
8916.496504	0.246592	0.224612	1843.518921
8916.497550	0.245273	0.224612	2100.074951
8916.498445	0.244285	0.224612	2318.709717
8916.499403	0.227534	0.224612	2536.687500
8916.500462	0.091113	0.224612	2633.176514
8916.501394	0.091879	0.224612	2718.807373
8916.502258	0.091926	0.224612	2798.231689
8916.503307	0.091674	0.224612	2894.397217
8916.504317	0.091732	0.224612	2987.046631
8916.505214	0.091406	0.224612	3069.038086
8916.506185	0.091102	0.224612	3157.498535
8916.507229	0.091143	0.224612	3252.651367
8916.508145	0.091150	0.224612	3336.144775
8916.509009	0.090981	0.224612	3414.752686
8917.547509	0.550778	0.187016	266.025574
8917.548390	0.280851	0.187016	513.455139
8917.549352	0.289259	0.187016	791.722351
8917.550433	0.284839	0.187016	1099.633179
8917.551363	0.272029	0.187016	1352.619995
8917.552234	0.254462	0.187016	1574.256104
8917.553344	0.246610	0.187016	1847.993286
8917.554337	0.245251	0.187016	2091.528076
8917.555233	0.244329	0.187016	2310.446533
8917.556243	0.223802	0.187016	2536.487061
8917.557293	0.090981	0.187016	2632.017578
8917.558187	0.092102	0.187016	2714.356934
8917.559053	0.091739	0.187016	2793.803223
8917.560158	0.091567	0.187016	2894.985107
8917.561118	0.091564	0.187016	2982.886230
8917.561983	0.091326	0.187016	3061.883057
8917.563032	0.091263	0.187016	3157.618408
8917.564064	0.091150	0.187016	3251.685059
8917.564940	0.091245	0.187016	3331.615723
8917.565854	0.090897	0.187016	3414.695801
8918.530567	0.593643	0.224946	296.821289
8918.531449	0.281367	0.224946	544.987122
8918.532339	0.289479	0.224946	802.623169
8918.533449	0.285201	0.224946	1119.196777
8918.534408	0.272168	0.224946	1380.205811
8918.535268	0.254729	0.224946	1599.272705
8918.536296	0.246918	0.224946	1853.104126
8918.537333	0.245610	0.224946	2107.802002
8918.538224	0.244581	0.224946	2325.723877
8918.539162	0.229863	0.224946	2541.335693
8918.540235	0.091121	0.224946	2639.108154
8918.541172	0.092036	0.224946	2725.345947
8918.542038	0.092201	0.224946	2805.191895
8918.543108	0.091582	0.224946	2903.184570
8918.544118	0.091494	0.224946	2995.593750
8918.545012	0.091388	0.224946	3077.294678
8918.545988	0.091190	0.224946	3166.296387
8918.547042	0.091128	0.224946	3262.345215
8918.547957	0.091168	0.224946	3345.764160
8918.548817	0.090981	0.224946	3424.008301
8919.580175	0.569971	0.190130	288.975159
8919.581091	0.282173	0.190130	547.445496
8919.581961	0.289702	0.190130	799.486328
8919.583043	0.285516	0.190130	1108.415039
8919.584051	0.271410	0.190130	1381.996216
8919.584950	0.253531	0.190130	1609.921021
8919.585945	0.246753	0.190130	1855.440186
8919.587003	0.245460	0.190130	2115.137207
8919.587911	0.244417	0.190130	2337.067383
8919.588780	0.265638	0.190130	2567.907227
8919.589894	0.091143	0.190130	2669.439941
8919.590875	0.091813	0.190130	2759.508301
8919.591742	0.091956	0.190130	2839.233887
8919.592824	0.091604	0.190130	2938.349365
8919.593848	0.091410	0.190130	3031.953125
8919.594735	0.091630	0.190130	3113.228516
8919.595660	0.091176	0.190130	3197.565918
8919.596717	0.091102	0.190130	3293.861084
8919.597657	0.091102	0.190130	3379.497314
8919.598515	0.090883	0.190130	3457.474609
8920.573444	0.579327	0.211705	287.925720
8920.574360	0.281869	0.211705	546.117676
8920.575225	0.289493	0.211705	796.529480
8920.576312	0.285469	0.211705	1106.833984
8920.577312	0.271534	0.211705	1378.368408
8920.578205	0.253986	0.211705	1605.177612
8920.579210	0.246863	0.211705	1853.274658
8920.580252	0.245427	0.211705	2109.009766
8920.581156	0.244464	0.211705	2330.005371
8920.582027	0.258307	0.211705	2554.990723
8920.583138	0.091073	0.211705	2656.172852
8920.584113	0.092007	0.211705	2745.879395
8920.585020	0.091959	0.211705	2829.286377
8920.585931	0.091926	0.211705	2913.031250
8920.586799	0.091772	0.211705	2992.689697
8920.587762	0.091469	0.211705	3080.773926
8920.588680	0.091414	0.211705	3164.691650
8920.589556	0.091132	0.211705	3244.522949
8920.590584	0.091187	0.211705	3338.262695
8920.591476	0.091252	0.211705	3419.659912
8921.608633	0.658389	0.196684	277.840027
8921.609651	0.281598	0.196684	564.506714
8921.610629	0.289061	0.196684	847.208618
8921.611549	0.284890	0.196684	1109.307495
8921.612426	0.272805	0.196684	1348.557617
8921.613528	0.252905	0.196684	1627.259277
8921.614447	0.246595	0.196684	1853.880493
8921.615316	0.245457	0.196684	2067.182129
8921.616361	0.244332	0.196684	2322.509277
8921.617354	0.237484	0.196684	2558.331055
8921.618231	0.091282	0.196684	2638.385254
8921.619107	0.091915	0.196684	2718.903076
8921.620203	0.091868	0.196684	2819.590088
8921.621098	0.091743	0.196684	2901.700195
8921.621960	0.091696	0.196684	2980.741699
8921.623045	0.091373	0.196684	3079.881836
8921.624003	0.091271	0.196684	3167.319336
8921.624885	0.091311	0.196684	3247.855713
8921.625742	0.091168	0.196684	3325.986816
8921.626846	0.090934	0.196684	3426.377686
8922.618300	0.644077	0.205232	271.800568
8922.619257	0.280214	0.205232	539.964966
8922.620292	0.288995	0.205232	839.075195
8922.621188	0.285282	0.205232	1094.687866
8922.622052	0.273911	0.205232	1331.347046
8922.623113	0.254143	0.205232	1600.992798
8922.624063	0.246588	0.205232	1835.251465
8922.624944	0.245468	0.205232	2051.508301
8922.625890	0.244365	0.205232	2282.677734
8922.626938	0.250243	0.205232	2544.932373
8922.627832	0.091058	0.205232	2626.338623
8922.628697	0.091857	0.205232	2705.794678
8922.629763	0.091853	0.205232	2803.709961
8922.630701	0.091813	0.205232	2889.830322
8922.631572	0.091813	0.205232	2969.799316
8922.632499	0.091472	0.205232	3054.593994
8922.633574	0.091256	0.205232	3152.694336
8922.634450	0.091414	0.205232	3232.772705
8922.635316	0.091388	0.205232	3311.914551
8922.636331	0.090912	0.205232	3404.190186
8923.638204	0.630754	0.215774	267.439880
8923.639250	0.282513	0.215774	562.948914
8923.640285	0.289677	0.215774	862.764099
8923.641169	0.285326	0.215774	1114.992187
8923.642143	0.271483	0.215774	1379.416748
8923.643210	0.251459	0.215774	1647.723145
8923.644131	0.246306	0.215774	1874.571045
8923.645001	0.245211	0.215774	2087.904785
8923.646105	0.244156	0.215774	2357.453613
8923.647109	0.223733	0.215774	2582.081543
8923.648000	0.090963	0.215774	2663.129639
8923.648988	0.091816	0.215774	2753.844238
8923.650050	0.091754	0.215774	2851.287109
8923.650937	0.092091	0.215774	2932.971924
8923.651829	0.091454	0.215774	3014.548828
8923.652935	0.091271	0.215774	3115.494385
8923.653892	0.091296	0.215774	3202.864990
8923.654755	0.091274	0.215774	3281.634766
8923.655804	0.090985	0.215774	3377.078125
8923.656823	0.090948	0.215774	3469.754639
8924.662350	0.485874	0.193091	274.518829
8924.663393	0.284363	0.193091	571.109253
8924.664281	0.289713	0.193091	828.374512
8924.665242	0.284513	0.193091	1101.791504
8924.666317	0.268546	0.193091	1390.478638
8924.667250	0.250613	0.193091	1624.300415
8924.668115	0.246467	0.193091	1837.494629
8924.669205	0.245208	0.193091	2104.770752
8924.670215	0.244226	0.193091	2351.439209
8924.671095	0.223345	0.193091	2547.982666
8924.672073	0.091088	0.193091	2637.066406
8924.673117	0.091868	0.193091	2732.976318
8924.674027	0.091959	0.193091	2816.659180
8924.674888	0.091615	0.193091	2895.539795
8924.675968	0.091300	0.193091	2994.143799
8924.676960	0.091329	0.193091	3084.742432
8924.677856	0.091223	0.193091	3166.478271
8924.678845	0.091025	0.193091	3256.502441
8924.679898	0.090967	0.193091	3352.290527
8924.680793	0.091007	0.193091	3433.741943
8925.668916	0.498369	0.226284	264.135651
8925.669957	0.284033	0.226284	559.814209
8925.670832	0.289735	0.226284	813.332397
8925.671784	0.284897	0.226284	1084.554810
8925.672865	0.269205	0.226284	1375.565796
8925.673803	0.251327	0.226284	1611.310425
8925.674674	0.246489	0.226284	1826.002563
8925.675731	0.245317	0.226284	2085.302979
8925.676750	0.244248	0.226284	2334.191650
8925.677648	0.225443	0.226284	2536.639648
8925.678615	0.091022	0.226284	2624.657715
8925.679657	0.091901	0.226284	2720.418213
8925.680579	0.092003	0.226284	2805.245117
8925.681442	0.091846	0.226284	2884.508057
8925.682531	0.091458	0.226284	2984.105225
8925.683519	0.091318	0.226284	3074.327881
8925.684416	0.091183	0.226284	3156.118896
8925.685405	0.091201	0.226284	3246.316895
8925.686445	0.091135	0.226284	3341.097656
8925.687335	0.091117	0.226284	3422.191650
8926.703120	0.565543	0.194504	282.206085
8926.704002	0.281433	0.194504	530.430054
8926.704904	0.289351	0.194504	791.424316
8926.705987	0.285326	0.194504	1100.432251
8926.706938	0.272468	0.194504	1359.549561
8926.707798	0.255099	0.194504	1578.934570
8926.708843	0.246625	0.194504	1836.657471
8926.709896	0.245277	0.194504	2094.934326
8926.710779	0.244244	0.194504	2310.602051
8926.711748	0.232266	0.194504	2535.667480
8926.712807	0.090978	0.194504	2632.012939
8926.713735	0.092021	0.194504	2717.408936
8926.714603	0.092040	0.194504	2797.299561
8926.715669	0.091838	0.194504	2895.199219
8926.716682	0.091670	0.194504	2988.060791
8926.717570	0.091494	0.194504	3069.307617
8926.718550	0.091201	0.194504	3158.684814
8926.719606	0.091194	0.194504	3254.985596
8926.720516	0.091044	0.194504	3337.835449
8926.721376	0.091234	0.194504	3416.296875
8927.704499	0.658967	0.233406	276.107269
8927.705571	0.282623	0.233406	579.079468
8927.706586	0.289742	0.233406	873.168030
8927.707463	0.285608	0.233406	1123.646118
8927.708438	0.272216	0.233406	1389.056274
8927.709496	0.252012	0.233406	1655.684692
8927.710402	0.246658	0.233406	1879.156616
8927.711277	0.245438	0.233406	2093.915039
8927.712378	0.244493	0.233406	2363.102295
8927.713358	0.227633	0.233406	2586.182617
8927.714239	0.091176	0.233406	2666.508301
8927.715230	0.091908	0.233406	2757.589111
8927.716296	0.091963	0.233406	2855.621582
8927.717184	0.091923	0.233406	2937.248779
8927.718052	0.091311	0.233406	3016.506836
8927.719149	0.091348	0.233406	3116.715332
8927.720125	0.091304	0.233406	3205.827637
8927.720987	0.091230	0.233406	3284.468262
8927.722023	0.091069	0.233406	3378.816162
8927.723064	0.091000	0.233406	3473.546875
8928.740798	0.644652	0.189691	272.687836
8928.741811	0.282004	0.189691	558.358276
8928.742873	0.289977	0.189691	866.313599
8928.743757	0.285677	0.189691	1118.852539
8928.744637	0.272651	0.189691	1358.785767
8928.745724	0.252616	0.189691	1633.379272
8928.746685	0.246841	0.189691	1870.593262
8928.747550	0.245757	0.189691	2083.172852
8928.748604	0.244468	0.189691	2340.841797
8928.749656	0.215453	0.189691	2567.498291
8928.750530	0.091044	0.189691	2647.070557
8928.751459	0.091875	0.189691	2732.422363
8928.752528	0.091732	0.189691	2830.484131
8928.753469	0.092098	0.189691	2917.148682
8928.754338	0.091534	0.189691	2996.692139
8928.755370	0.091340	0.189691	3090.955322
8928.756385	0.091135	0.189691	3183.457520
8928.757275	0.091113	0.189691	3264.548340
8928.758224	0.091040	0.189691	3350.945312
8928.759262	0.090927	0.189691	3445.327148
8929.745446	0.539019	0.232012	279.750641
8929.746458	0.283835	0.232012	566.992065
8929.747342	0.289640	0.232012	823.033691
8929.748367	0.284396	0.232012	1114.539307
8929.749430	0.268898	0.232012	1400.377563
8929.750314	0.251602	0.232012	1622.793335
8929.751190	0.246852	0.232012	1839.035522
8929.752286	0.245515	0.232012	2108.120117
8929.753252	0.244530	0.232012	2344.336182
8929.754119	0.243501	0.232012	2555.451660
8929.755154	0.091161	0.232012	2649.803223
8929.756195	0.091945	0.232012	2745.517578
8929.757089	0.092303	0.232012	2828.036865
8929.758020	0.091761	0.232012	2913.466797
8929.759082	0.091399	0.232012	3010.532471
8929.760011	0.091505	0.232012	3095.540771
8929.760872	0.091373	0.232012	3174.213135
8929.761911	0.091051	0.232012	3268.815186
8929.762928	0.091044	0.232012	3361.406738
8929.763821	0.091146	0.232012	3442.800293
8930.770374	0.617395	0.207609	264.862457
8930.771319	0.280891	0.207609	530.304565
8930.772370	0.289709	0.207609	834.789185
8930.773304	0.285780	0.207609	1101.707764
8930.774169	0.274010	0.207609	1338.726440
8930.775233	0.254048	0.207609	1609.033325
8930.776245	0.246713	0.207609	1858.706543
8930.777124	0.245585	0.207609	2074.575439
8930.778113	0.244482	0.207609	2316.368652
8930.779179	0.223293	0.207609	2554.399414
8930.780075	0.090963	0.207609	2635.902344
8930.780943	0.091904	0.207609	2715.675293
8930.782013	0.091809	0.207609	2813.911133
8930.783013	0.091769	0.207609	2905.679932
8930.783903	0.091648	0.207609	2987.246582
8930.784887	0.091362	0.207609	3077.146973
8930.785943	0.091289	0.207609	3173.548340
8930.786840	0.091176	0.207609	3255.332764
8930.787701	0.090952	0.207609	3333.642578
8930.788816	0.090945	0.207609	3435.046143
8931.791407	0.582546	0.226276	315.740112
8931.792474	0.284546	0.226276	619.350586
8931.793387	0.289603	0.226276	883.758423
8931.794259	0.284864	0.226276	1132.160278
8931.795370	0.269495	0.226276	1431.568848
8931.796338	0.251199	0.226276	1674.729248
8931.797210	0.246694	0.226276	1889.846680
8931.798291	0.245306	0.226276	2155.022949
8931.799328	0.244351	0.226276	2408.414551
8931.800214	0.215035	0.226276	2598.936035
8931.801148	0.091165	0.226276	2684.083740
8931.802225	0.091886	0.226276	2783.044922
8931.803149	0.091816	0.226276	2867.883301
8931.804010	0.091816	0.226276	2946.937256
8931.805060	0.091469	0.226276	3042.979248
8931.806076	0.091296	0.226276	3135.736328
8931.806947	0.091359	0.226276	3215.309814
8931.807908	0.091099	0.226276	3302.855713
8931.808950	0.091036	0.226276	3397.715576
8931.809872	0.090798	0.226276	3481.431641
8932.796863	0.644725	0.220576	275.942444
8932.797838	0.281104	0.220576	550.018372
8932.798901	0.289823	0.220576	858.100220
8932.799826	0.285337	0.220576	1122.036865
8932.800689	0.273127	0.220576	1357.745850
8932.801767	0.253022	0.220576	1630.504028
8932.802778	0.246654	0.220576	1879.871338
8932.803652	0.245614	0.220576	2094.538086
8932.804638	0.244438	0.220576	2335.554443
8932.805714	0.231665	0.220576	2584.825928
8932.806594	0.091110	0.220576	2665.002441
8932.807461	0.091970	0.220576	2744.740723
8932.808558	0.091941	0.220576	2845.599854
8932.809526	0.091696	0.220576	2934.361084
8932.810411	0.091615	0.220576	3015.440430
8932.811410	0.091337	0.220576	3106.685791
8932.812471	0.091282	0.220576	3203.535645
8932.813363	0.091366	0.220576	3285.034180
8932.814250	0.091069	0.220576	3365.812744
8932.815351	0.090967	0.220576	3465.967285
8933.838346	0.579533	0.214916	290.925323
8933.839344	0.283458	0.214916	573.816650
8933.840247	0.289768	0.214916	835.477173
8933.841245	0.285121	0.214916	1120.027832
8933.842309	0.270015	0.214916	1407.323486
8933.843209	0.252228	0.214916	1634.328491
8933.844072	0.246724	0.214916	1847.250977
8933.845195	0.245306	0.214916	2122.729980
8933.846165	0.244376	0.214916	2359.774902
8933.847034	0.237832	0.214916	2566.450928
8933.848094	0.091168	0.214916	2663.089355
8933.849120	0.091831	0.214916	2757.308105
8933.850007	0.091959	0.214916	2838.875977
8933.850931	0.091725	0.214916	2923.629639
8933.851994	0.091359	0.214916	3020.743896
8933.852939	0.091348	0.214916	3107.067383
8933.853798	0.091241	0.214916	3185.443848
8933.854830	0.091003	0.214916	3279.359375
8933.855847	0.090992	0.214916	3371.898682
8933.856724	0.090974	0.214916	3451.683105
8934.824509	0.554938	0.235436	309.100311
8934.825552	0.283912	0.235436	605.220886
8934.826444	0.289127	0.235436	863.122314
8934.827309	0.284337	0.235436	1109.073975
8934.828426	0.269194	0.235436	1409.764038
8934.829393	0.250946	0.235436	1652.428833
8934.830255	0.246471	0.235436	1864.886719
8934.831265	0.245240	0.235436	2112.579590
8934.832326	0.244189	0.235436	2371.664551
8934.833206	0.229669	0.235436	2573.773437
8934.834128	0.091165	0.235436	2657.827148
8934.835194	0.091721	0.235436	2755.602051
8934.836127	0.091816	0.235436	2841.266846
8934.836993	0.091783	0.235436	2920.751221
8934.838033	0.091377	0.235436	3015.783203
8934.839049	0.091278	0.235436	3108.521729
8934.839938	0.091366	0.235436	3189.746094
8934.840887	0.091241	0.235436	3276.334229
8934.841944	0.091069	0.235436	3372.594482
8934.842892	0.091128	0.235436	3458.983887
8935.882250	0.551891	0.196313	270.978394
8935.883144	0.281561	0.196313	522.694214
8935.884021	0.289552	0.196313	776.631348
8935.884966	0.286721	0.196313	1047.582886
8935.885958	0.274768	0.196313	1320.152832
8935.886869	0.257109	0.196313	1554.379517
8935.887748	0.247211	0.196313	1771.677734
8935.888823	0.245757	0.196313	2035.866333
8935.889726	0.244702	0.196313	2256.832275
8935.890604	0.306460	0.196313	2525.904053
8935.891508	0.090319	0.196313	2607.552002
8935.892538	0.091772	0.196313	2702.077637
8935.893424	0.091897	0.196313	2783.498291
8935.894287	0.091978	0.196313	2862.875000
8935.895266	0.091589	0.196313	2952.541016
8935.896188	0.091670	0.196313	3037.060791
8935.897107	0.091626	0.196313	3121.265137
8935.897969	0.091344	0.196313	3200.003662
8935.899004	0.091157	0.196313	3294.351318
8935.899898	0.091154	0.196313	3375.842529
8936.858036	0.656953	0.239573	275.920319
8936.859025	0.281755	0.239573	554.576416
8936.859914	0.289563	0.239573	811.997925
8936.860815	0.286886	0.239573	1070.482178
8936.861696	0.275933	0.239573	1313.578857
8936.862689	0.257512	0.239573	1569.288452
8936.863618	0.247324	0.239573	1799.052612
8936.864499	0.245980	0.239573	2015.761230
8936.865527	0.244830	0.239573	2267.446777
8936.866433	0.298729	0.239573	2538.095459
8936.867357	0.090194	0.239573	2621.434814
8936.868224	0.091458	0.239573	2700.728516
8936.869232	0.091824	0.239573	2793.286865
8936.870154	0.091696	0.239573	2877.830078
8936.871028	0.091483	0.239573	2957.786377
8936.872050	0.091271	0.239573	3051.065186
8936.872920	0.091062	0.239573	3130.289062
8936.873826	0.091066	0.239573	3212.794678
8936.874703	0.091172	0.239573	3292.752441
8936.875697	0.090912	0.239573	3383.118896
8937.917902	0.646677	0.194130	287.124695
8937.918939	0.283011	0.194130	580.607544
8937.919838	0.289647	0.194130	841.000366
8937.920705	0.285974	0.194130	1088.939941
8937.921808	0.271963	0.194130	1388.915039
8937.922726	0.253813	0.194130	1621.915771
8937.923606	0.246819	0.194130	1839.116333
8937.924601	0.245548	0.194130	2083.436768
8937.925606	0.244431	0.194130	2329.090088
8937.926502	0.263229	0.194130	2564.943115
8937.927363	0.090978	0.194130	2643.274902
8937.928459	0.091765	0.194130	2743.849609
8937.929361	0.091864	0.194130	2826.710937
8937.930230	0.091761	0.194130	2906.451660
8937.931216	0.091586	0.194130	2996.755127
8937.932219	0.091578	0.194130	3088.608154
8937.933102	0.091300	0.194130	3169.226074
8937.933963	0.091190	0.194130	3247.740723
8937.935022	0.091044	0.194130	3344.156006
8937.935953	0.091088	0.194130	3428.958496
8938.898902	0.552510	0.223730	245.314316
8938.899789	0.280935	0.223730	494.503723
8938.900650	0.289717	0.223730	743.949890
8938.901754	0.286703	0.223730	1060.469849
8938.902656	0.275167	0.223730	1308.670654
8938.903531	0.258160	0.223730	1534.561035
8938.904523	0.247104	0.223730	1779.688721
8938.905535	0.245680	0.223730	2028.316772
8938.906429	0.244640	0.223730	2247.024902
8938.907298	0.255908	0.223730	2469.409180
8938.908410	0.091022	0.223730	2570.625244
8938.909317	0.092040	0.223730	2654.105225
8938.910191	0.092281	0.223730	2734.759277
8938.911184	0.091765	0.223730	2825.882080
8938.912176	0.091696	0.223730	2916.843994
8938.913068	0.091447	0.223730	2998.414307
8938.913929	0.091479	0.223730	3077.178223
8938.915017	0.091289	0.223730	3176.500732
8938.915921	0.091099	0.223730	3258.854004
8938.916791	0.091135	0.223730	3338.141602
8939.949500	0.644326	0.198956	271.261322
8939.950465	0.281089	0.198956	542.512085
8939.951518	0.289640	0.198956	847.502930
8939.952435	0.285593	0.198956	1109.391968
8939.953310	0.273380	0.198956	1348.599609
8939.954391	0.253206	0.198956	1622.314819
8939.955391	0.246698	0.198956	1869.012817
8939.956287	0.245570	0.198956	2089.043701
8939.957264	0.244515	0.198956	2327.935303
8939.958321	0.223246	0.198956	2563.906250
8939.959221	0.091179	0.198956	2645.967529
8939.960085	0.091904	0.198956	2725.372803
8939.961192	0.091901	0.198956	2827.106934
8939.962148	0.091915	0.198956	2914.978027
8939.963029	0.091707	0.198956	2995.771484
8939.964041	0.091340	0.198956	3088.208008
8939.965076	0.091366	0.198956	3182.771729
8939.965949	0.091326	0.198956	3262.499023
8939.966809	0.091205	0.198956	3340.935059
8939.967906	0.090985	0.198956	3440.745605
8940.941804	0.582916	0.214960	274.553558
8940.942689	0.280931	0.214960	523.177856
8940.943653	0.289530	0.214960	802.284790
8940.944719	0.285385	0.214960	1106.504639
8940.945658	0.272172	0.214960	1362.073853
8940.946526	0.254729	0.214960	1583.178589
8940.947603	0.246844	0.214960	1849.030029
8940.948597	0.245508	0.214960	2093.064697
8940.949484	0.244559	0.214960	2309.988770
8940.950486	0.239542	0.214960	2550.010010
8940.951538	0.091051	0.214960	2645.795654
8940.952440	0.092087	0.214960	2728.858398
8940.953299	0.092106	0.214960	2807.977295
8940.954390	0.091582	0.214960	2907.893311
8940.955381	0.091637	0.214960	2998.705566
8940.956257	0.091161	0.214960	3078.562500
8940.957238	0.091293	0.214960	3168.120605
8940.958309	0.091080	0.214960	3265.667725
8940.959188	0.091029	0.214960	3345.682373
8940.960052	0.091099	0.214960	3424.391602
8941.980181	0.648245	0.202795	335.142456
8941.981240	0.283700	0.202795	635.580688
8941.982167	0.289376	0.202795	903.832458
8941.983042	0.284619	0.202795	1152.874268
8941.984099	0.269604	0.202795	1437.846191
8941.985127	0.250543	0.202795	1695.404541
8941.986026	0.246313	0.202795	1916.840332
8941.987007	0.245094	0.202795	2157.277588
8941.988068	0.244010	0.202795	2416.172119
8941.988989	0.232943	0.202795	2630.712646
8941.989850	0.091066	0.202795	2709.120117
8941.990956	0.091769	0.202795	2810.616455
8941.991919	0.091831	0.202795	2899.049805
8941.992800	0.091670	0.202795	2979.811035
8941.993790	0.091388	0.202795	3070.285156
8941.994856	0.091395	0.202795	3167.712402
8941.995748	0.091245	0.202795	3249.103027
8941.996609	0.091080	0.202795	3327.523193
8941.997704	0.090981	0.202795	3427.147949
8941.998664	0.090901	0.202795	3514.412842
8942.985657	0.648450	0.206968	271.700439
8942.986542	0.280331	0.206968	519.793213
8942.987647	0.289742	0.206968	839.958618
8942.988613	0.285710	0.206968	1115.954956
8942.989484	0.273995	0.206968	1354.604980
8942.990534	0.254015	0.206968	1621.320557
8942.991557	0.246698	0.206968	1873.692627
8942.992455	0.245610	0.206968	2094.250732
8942.993393	0.244633	0.206968	2323.716064
8942.994448	0.244307	0.206968	2581.459473
8942.995384	0.091003	0.206968	2666.638672
8942.996246	0.091952	0.206968	2745.901123
8942.997297	0.091802	0.206968	2842.384766
8942.998308	0.091586	0.206968	2934.978027
8942.999193	0.091633	0.206968	3016.073486
8943.000168	0.091366	0.206968	3105.155273
8943.001201	0.091337	0.206968	3199.506104
8943.002123	0.091040	0.206968	3283.445068
8943.002982	0.091263	0.206968	3361.840332
8943.004015	0.090901	0.206968	3455.740967
8944.010680	0.646249	0.211883	271.424469
8944.011719	0.282795	0.211883	565.248901
8944.012618	0.289735	0.211883	825.720764
8944.013499	0.286860	0.211883	1078.444702
8944.014497	0.274468	0.211883	1352.363525
8944.015427	0.255846	0.211883	1590.300293
8944.016351	0.246910	0.211883	1818.445557
8944.017216	0.245753	0.211883	2031.022095
8944.018251	0.244545	0.211883	2284.125732
8944.019134	0.299696	0.211883	2548.757324
8944.020003	0.090330	0.211883	2627.253662
8944.021004	0.091545	0.211883	2718.890625
8944.021926	0.092146	0.211883	2803.849121
8944.022835	0.092073	0.211883	2887.543213
8944.023719	0.091827	0.211883	2968.718750
8944.024736	0.091304	0.211883	3061.574707
8944.025641	0.091469	0.211883	3144.353760
8944.026516	0.091227	0.211883	3224.177246
8944.027432	0.091069	0.211883	3307.596680
8944.028432	0.090927	0.211883	3398.523193
8945.025471	0.658953	0.205051	280.713837
8945.026337	0.279829	0.205051	523.045837
8945.027353	0.289523	0.205051	817.200928
8945.028329	0.286058	0.205051	1096.393799
8945.029211	0.274662	0.205051	1338.645508
8945.030074	0.256835	0.205051	1560.293823
8945.031202	0.247093	0.205051	1839.015259
8945.032111	0.245815	0.205051	2062.461426
8945.032979	0.244904	0.205051	2275.037598
8945.034074	0.269810	0.205051	2570.479004
8945.035047	0.091216	0.205051	2659.231934
8945.035918	0.091959	0.205051	2739.328369
8945.036801	0.091915	0.205051	2820.489502
8945.037886	0.091736	0.205051	2920.022949
8945.038768	0.091908	0.205051	3001.085693
8945.039624	0.091476	0.205051	3079.388916
8945.040667	0.091168	0.205051	3174.477295
8945.041634	0.091091	0.205051	3262.562500
8945.042551	0.091179	0.205051	3346.173828
8945.043425	0.090989	0.205051	3425.697998
8946.045376	0.656444	0.213260	279.645203
8946.046277	0.280485	0.213260	532.361816
8946.047369	0.289559	0.213260	848.560608
8946.048329	0.285157	0.213260	1122.311768
8946.049202	0.273003	0.213260	1360.643311
8946.050236	0.253004	0.213260	1622.249634
8946.051269	0.246606	0.213260	1876.994141
8946.052164	0.245570	0.213260	2096.779297
8946.053122	0.244457	0.213260	2330.968994
8946.054192	0.226069	0.213260	2572.863281
8946.055129	0.090981	0.213260	2658.112793
8946.055997	0.091934	0.213260	2737.911133
8946.057077	0.091835	0.213260	2837.092529
8946.058081	0.091512	0.213260	2928.970947
8946.058971	0.091791	0.213260	3010.664795
8946.059946	0.091333	0.213260	3099.714355
8946.060996	0.091296	0.213260	3195.575684
8946.061907	0.091241	0.213260	3278.696533
8946.062768	0.091025	0.213260	3357.069336
8946.063858	0.090831	0.213260	3456.075439
8947.065281	0.644517	0.200772	273.919586
8947.066180	0.280536	0.200772	526.121338
8947.067272	0.289779	0.200772	842.560059
8947.068223	0.285388	0.200772	1113.964233
8947.069088	0.273453	0.200772	1350.501465
8947.070120	0.253733	0.200772	1612.353882
8947.071154	0.246749	0.200772	1867.492676
8947.072051	0.245647	0.200772	2087.837891
8947.072994	0.244592	0.200772	2318.488525
8947.074056	0.242651	0.200772	2576.184326
8947.074987	0.091260	0.200772	2661.147217
8947.075857	0.091996	0.200772	2741.183594
8947.076927	0.091820	0.200772	2839.431152
8947.077936	0.091677	0.200772	2931.933594
8947.078824	0.091615	0.200772	3013.287598
8947.079787	0.091509	0.200772	3101.410645
8947.080855	0.091249	0.200772	3198.864258
8947.081766	0.091249	0.200772	3281.991943
8947.082627	0.091326	0.200772	3360.623291
8947.083717	0.090970	0.200772	3459.781006
8948.080195	0.487745	0.217434	267.284454
8948.081213	0.283865	0.217434	556.258789
8948.082096	0.289358	0.217434	811.761841
8948.083005	0.285015	0.217434	1070.840210
8948.083884	0.272618	0.217434	1310.471802
8948.084867	0.253912	0.217434	1560.067627
8948.085790	0.246903	0.217434	1787.959229
8948.086673	0.245665	0.217434	2004.881714
8948.087699	0.244629	0.217434	2255.870850
8948.088605	0.293379	0.217434	2521.672119
8948.089535	0.091062	0.217434	2606.359863
8948.090403	0.091835	0.217434	2686.072510
8948.091405	0.092036	0.217434	2778.292725
8948.092332	0.091729	0.217434	2863.324951
8948.093193	0.091820	0.217434	2942.382080
8948.094267	0.091355	0.217434	3040.497314
8948.095143	0.091414	0.217434	3120.575684
8948.096004	0.091381	0.217434	3199.254395
8948.096862	0.091018	0.217434	3277.347900
8948.097928	0.091036	0.217434	3374.392578
8949.102024	0.617267	0.198086	268.511078
8949.102886	0.280404	0.198086	510.219360
8949.103983	0.289823	0.198086	828.155151
8949.104890	0.286066	0.198086	1087.616699
8949.105763	0.274438	0.198086	1327.201416
8949.106746	0.255538	0.198086	1578.395630
8949.107766	0.246918	0.198086	1830.251709
8949.108666	0.245878	0.198086	2051.541748
8949.109533	0.244764	0.198086	2263.752441
8949.110630	0.253645	0.198086	2542.000977
8949.111553	0.091271	0.198086	2626.243896
8949.112419	0.091725	0.198086	2705.677734
8949.113509	0.091853	0.198086	2805.797607
8949.114496	0.091809	0.198086	2896.413086
8949.115391	0.091681	0.198086	2978.467529
8949.116388	0.091406	0.198086	3069.599609
8949.117422	0.091176	0.198086	3163.875000
8949.118310	0.091139	0.198086	3244.806396
8949.119168	0.091208	0.198086	3323.063232
8949.120261	0.090963	0.198086	3422.485840
8950.117848	0.603252	0.219500	266.034088
8950.118713	0.279624	0.219500	507.908875
8950.119750	0.289010	0.219500	807.612244
8950.120814	0.284784	0.219500	1110.622314
8950.121695	0.272545	0.219500	1350.734619
8950.122605	0.254667	0.219500	1582.481323
8950.123693	0.246541	0.219500	1850.717407
8950.124647	0.245182	0.219500	2084.620850
8950.125519	0.244266	0.219500	2297.621094
8950.126561	0.232354	0.219500	2539.733398
8950.127591	0.090978	0.219500	2633.440430
8950.128476	0.092241	0.219500	2715.073975
8950.129434	0.091952	0.219500	2803.163818
8950.130484	0.091780	0.219500	2899.532715
8950.131412	0.091652	0.219500	2984.585449
8950.132275	0.091725	0.219500	3063.743896
8950.133358	0.091293	0.219500	3162.614014
8950.134357	0.091044	0.219500	3253.566650
8950.135251	0.091399	0.219500	3335.277344
8950.136232	0.091128	0.219500	3424.673828
8951.137739	0.645227	0.194891	281.964233
8951.138605	0.279957	0.194891	524.407227
8951.139643	0.289303	0.194891	824.703735
8951.140687	0.285396	0.194891	1122.656738
8951.141574	0.273245	0.194891	1365.024658
8951.142505	0.255150	0.194891	1602.569458
8951.143591	0.246760	0.194891	1870.551025
8951.144539	0.245632	0.194891	2103.410400
8951.145399	0.244636	0.194891	2313.797607
8951.146429	0.236642	0.194891	2557.538574
8951.147451	0.091073	0.194891	2650.615234
8951.148344	0.091765	0.194891	2732.561523
8951.149299	0.091857	0.194891	2820.284668
8951.150354	0.091505	0.194891	2916.822510
8951.151286	0.091538	0.194891	3002.135986
8951.152153	0.091230	0.194891	3081.232910
8951.153241	0.091146	0.194891	3180.399902
8951.154240	0.091080	0.194891	3271.389160
8951.155126	0.091051	0.194891	3352.060303
8951.156111	0.090948	0.194891	3441.644531
8952.157645	0.634054	0.215266	279.617798
8952.158508	0.279913	0.215266	521.182983
8952.159543	0.289384	0.215266	820.694946
8952.160607	0.284861	0.215266	1123.786865
8952.161499	0.272483	0.215266	1366.841553
8952.162438	0.254498	0.215266	1605.815430
8952.163506	0.246808	0.215266	1869.406250
8952.164458	0.245552	0.215266	2103.171631
8952.165319	0.244563	0.215266	2313.740234
8952.166392	0.236360	0.215266	2567.354492
8952.167412	0.090963	0.215266	2660.136963
8952.168281	0.092018	0.215266	2740.100342
8952.169239	0.091978	0.215266	2828.214844
8952.170294	0.091545	0.215266	2924.795166
8952.171215	0.091611	0.215266	3009.169189
8952.172085	0.091469	0.215266	3088.746826
8952.173154	0.091337	0.215266	3186.385742
8952.174162	0.091073	0.215266	3278.187256
8952.175055	0.091238	0.215266	3359.662598
8952.176025	0.090842	0.215266	3447.779541
8953.171388	0.644659	0.201062	272.690918
8953.172325	0.280792	0.201062	535.793213
8953.173396	0.289900	0.201062	846.276001
8953.174336	0.285721	0.201062	1114.854126
8953.175200	0.273970	0.201062	1351.563965
8953.176263	0.253879	0.201062	1621.437744
8953.177276	0.247020	0.201062	1871.669312
8953.178160	0.245702	0.201062	2088.869873
8953.179130	0.244713	0.201062	2326.241699
8953.180183	0.229435	0.201062	2567.836426
8953.181091	0.091165	0.201062	2650.613770
8953.181962	0.091956	0.201062	2730.707031
8953.183008	0.091769	0.201062	2826.697266
8953.184011	0.091696	0.201062	2918.667969
8953.184900	0.091967	0.201062	3000.426270
8953.185861	0.091315	0.201062	3088.179687
8953.186909	0.091172	0.201062	3183.727783
8953.187825	0.091381	0.201062	3267.432373
8953.188691	0.091285	0.201062	3346.485596
8953.189784	0.091102	0.201062	3446.060303
8954.200542	0.581338	0.196599	268.578094
8954.201427	0.280206	0.196599	516.560669
8954.202402	0.288973	0.196599	798.309692
8954.203474	0.285051	0.196599	1103.884644
8954.204402	0.272003	0.196599	1356.303589
8954.205272	0.254260	0.196599	1577.510010
8954.206370	0.246562	0.196599	1848.235596
8954.207355	0.245138	0.196599	2089.696533
8954.208249	0.244248	0.196599	2308.054199
8954.209251	0.237297	0.196599	2545.826172
8954.210299	0.091051	0.196599	2641.247559
8954.211176	0.091904	0.196599	2721.847656
8954.212037	0.091890	0.196599	2800.964600
8954.213141	0.091608	0.196599	2902.099365
8954.214104	0.091641	0.196599	2990.349365
8954.214961	0.091527	0.196599	3068.788086
8954.215989	0.091113	0.196599	3162.452637
8954.217054	0.091216	0.196599	3259.597412
8954.217926	0.091201	0.196599	3339.124756
8954.218839	0.090875	0.196599	3422.093750
8955.202004	0.646666	0.206988	287.119812
8955.203108	0.283883	0.206988	600.526733
8955.204074	0.289713	0.206988	880.389648
8955.204942	0.285234	0.206988	1127.973022
8955.205997	0.270201	0.206988	1413.035522
8955.207016	0.251023	0.206988	1668.827881
8955.207904	0.246632	0.206988	1887.837158
8955.208848	0.245405	0.206988	2119.499756
8955.209914	0.244336	0.206988	2379.961914
8955.210857	0.225201	0.206988	2592.326904
8955.211713	0.091124	0.206988	2670.329346
8955.212784	0.091915	0.206988	2768.770508
8955.213798	0.091820	0.206988	2861.875977
8955.214670	0.091743	0.206988	2941.875977
8955.215627	0.091304	0.206988	3029.253662
8955.216685	0.091234	0.206988	3125.779297
8955.217598	0.091282	0.206988	3209.119629
8955.218465	0.091168	0.206988	3288.162354
8955.219532	0.091022	0.206988	3385.282471
8955.220526	0.090948	0.206988	3475.685303
8956.243482	0.566191	0.191221	288.191406
8956.244358	0.281536	0.191221	534.816650
8956.245257	0.289285	0.191221	794.883545
8956.246354	0.284864	0.191221	1107.379883
8956.247317	0.271582	0.191221	1368.913330
8956.248192	0.253953	0.191221	1591.121826
8956.249244	0.246749	0.191221	1850.702026
8956.250265	0.245369	0.191221	2101.223389
8956.251166	0.244460	0.191221	2321.482178
8956.252137	0.227047	0.191221	2541.944824
8956.253183	0.091073	0.191221	2637.207275
8956.254118	0.092223	0.191221	2723.435791
8956.254979	0.092051	0.191221	2802.691406
8956.256043	0.091699	0.191221	2900.259277
8956.257048	0.091373	0.191221	2992.089355
8956.257926	0.091802	0.191221	3072.691406
8956.258919	0.091208	0.191221	3163.261475
8956.259970	0.091110	0.191221	3259.017578
8956.260875	0.091333	0.191221	3341.673828
8956.261732	0.091208	0.191221	3419.839600
8957.231543	0.644546	0.224253	271.353790
8957.232629	0.283044	0.224253	578.740051
8957.233639	0.289768	0.224253	871.405762
8957.234538	0.285070	0.224253	1127.683350
8957.235523	0.271205	0.224253	1394.820068
8957.236573	0.251675	0.224253	1659.078613
8957.237475	0.246749	0.224253	1881.646484
8957.238338	0.245614	0.224253	2093.611328
8957.239428	0.244449	0.224253	2360.061279
8957.240431	0.221038	0.224253	2581.761963
8957.241311	0.091168	0.224253	2661.989990
8957.242322	0.091783	0.224253	2754.782959
8957.243364	0.091879	0.224253	2850.520508
8957.244245	0.091772	0.224253	2931.372070
8957.245125	0.091575	0.224253	3011.957764
8957.246229	0.091263	0.224253	3112.712646
8957.247176	0.091227	0.224253	3199.104492
8957.248046	0.091230	0.224253	3278.475098
8957.249062	0.090978	0.224253	3370.908447
8957.250097	0.090927	0.224253	3465.017334
8958.286344	0.580774	0.195536	292.129303
8958.287261	0.281561	0.195536	550.321045
8958.288124	0.289307	0.195536	799.992676
8958.289196	0.285330	0.195536	1105.865967
8958.290205	0.271692	0.195536	1380.003052
8958.291095	0.254161	0.195536	1606.206665
8958.292085	0.246570	0.195536	1850.310791
8958.293147	0.245171	0.195536	2110.682373
8958.294062	0.244149	0.195536	2334.078857
8958.294998	0.245167	0.195536	2563.555420
8958.295873	0.091318	0.195536	2643.458984
8958.296811	0.092098	0.195536	2729.847168
8958.297756	0.091857	0.195536	2816.651855
8958.298645	0.091868	0.195536	2898.322266
8958.299604	0.091531	0.195536	2986.100342
8958.300558	0.091465	0.195536	3073.357910
8958.301480	0.091340	0.195536	3157.573730
8958.302343	0.091388	0.195536	3236.441406
8958.303370	0.091245	0.195536	3330.150146
8958.304254	0.091263	0.195536	3410.826904
8959.265213	0.632930	0.235630	270.260986
8959.266194	0.280917	0.235630	545.840332
8959.267160	0.289567	0.235630	825.561768
8959.268086	0.285992	0.235630	1090.390747
8959.268954	0.274296	0.235630	1328.479370
8959.270005	0.254355	0.235630	1595.807007
8959.270890	0.246987	0.235630	1814.390747
8959.271758	0.245739	0.235630	2027.691772
8959.272717	0.244658	0.235630	2262.319092
8959.273670	0.292478	0.235630	2541.050781
8959.274607	0.090802	0.235630	2626.132324
8959.275486	0.091794	0.235630	2706.819580
8959.276527	0.092120	0.235630	2802.716797
8959.277419	0.091710	0.235630	2884.522217
8959.278287	0.091696	0.235630	2964.114014
8959.279183	0.091414	0.235630	3046.020508
8959.280190	0.091340	0.235630	3138.000244
8959.281079	0.091432	0.235630	3219.283203
8959.281945	0.091036	0.235630	3298.120605
8959.282960	0.090978	0.235630	3390.463135
8960.325049	0.645125	0.196007	272.242554
8960.326135	0.282880	0.196007	579.449829
8960.327059	0.289490	0.196007	846.938354
8960.327932	0.286069	0.196007	1096.676880
8960.328927	0.273168	0.196007	1368.478760
8960.329946	0.253173	0.196007	1626.461670
8960.330828	0.246888	0.196007	1844.217285
8960.331692	0.245709	0.196007	2056.510010
8960.332755	0.244508	0.196007	2316.422119
8960.333698	0.259962	0.196007	2561.566406
8960.334562	0.091077	0.196007	2640.256592
8960.335618	0.091739	0.196007	2737.133545
8960.336629	0.091974	0.196007	2830.119141
8960.337521	0.091729	0.196007	2911.940918
8960.338490	0.091516	0.196007	3000.620117
8960.339545	0.091348	0.196007	3096.991943
8960.340459	0.091399	0.196007	3180.530518
8960.341321	0.091055	0.196007	3259.019775
8960.342404	0.090945	0.196007	3357.512939
8960.343397	0.090857	0.196007	3447.733887
8961.300917	0.657909	0.247147	276.321747
8961.301790	0.280038	0.247147	520.794800
8961.302903	0.289519	0.247147	843.029480
8961.303801	0.286058	0.247147	1099.909912
8961.304670	0.274709	0.247147	1338.632446
8961.305769	0.253978	0.247147	1617.754517
8961.306750	0.246559	0.247147	1859.628784
8961.307630	0.245416	0.247147	2075.594971
8961.308515	0.244431	0.247147	2291.916504
8961.309634	0.259808	0.247147	2582.642090
8961.310509	0.091263	0.247147	2662.497559
8961.311384	0.091875	0.247147	2742.888184
8961.312473	0.091831	0.247147	2842.892090
8961.313422	0.091637	0.247147	2929.855469
8961.314280	0.091769	0.247147	3008.593018
8961.315315	0.091274	0.247147	3103.062012
8961.316373	0.091296	0.247147	3199.653564
8961.317252	0.091351	0.247147	3279.951416
8961.318182	0.090996	0.247147	3364.577881
8961.319248	0.090831	0.247147	3461.404053
8962.359786	0.536895	0.195588	248.582153
8962.360667	0.281071	0.195588	496.205322
8962.361664	0.289673	0.195588	785.009155
8962.362734	0.285410	0.195588	1090.397949
8962.363639	0.272725	0.195588	1337.213745
8962.364505	0.254960	0.195588	1558.008789
8962.365629	0.246735	0.195588	1835.338501
8962.366602	0.245460	0.195588	2074.171387
8962.367470	0.244479	0.195588	2286.378906
8962.368556	0.197164	0.195588	2500.499268
8962.369592	0.090981	0.195588	2594.756104
8962.370476	0.092073	0.195588	2676.148437
8962.371385	0.091926	0.195588	2759.709473
8962.372480	0.091696	0.195588	2860.116211
8962.373412	0.091761	0.195588	2945.637939
8962.374278	0.091560	0.195588	3024.928955
8962.375300	0.091172	0.195588	3118.106689
8962.376324	0.091073	0.195588	3211.365479
8962.377218	0.091296	0.195588	3292.984375
8962.378172	0.091033	0.195588	3379.829590
8963.343798	0.644421	0.238413	271.301392
8963.344769	0.281228	0.238413	544.373779
8963.345858	0.289764	0.238413	859.927246
8963.346786	0.285022	0.238413	1124.427612
8963.347656	0.272274	0.238413	1361.306152
8963.348745	0.252166	0.238413	1635.914429
8963.349743	0.246621	0.238413	1882.042236
8963.350641	0.245413	0.238413	2102.422852
8963.351636	0.244395	0.238413	2345.595459
8963.352692	0.223037	0.238413	2581.122559
8963.353587	0.091296	0.238413	2662.832764
8963.354448	0.092014	0.238413	2742.056885
8963.355550	0.091721	0.238413	2843.133545
8963.356512	0.091688	0.238413	2931.337646
8963.357375	0.091553	0.238413	3010.347656
8963.358453	0.091392	0.238413	3108.867920
8963.359493	0.091216	0.238413	3203.732422
8963.360388	0.091146	0.238413	3285.308350
8963.361318	0.091044	0.238413	3369.979004
8963.362357	0.090791	0.238413	3464.310791
8964.388378	0.538883	0.211020	278.602539
8964.389404	0.283528	0.211020	569.502075
8964.390300	0.289482	0.211020	828.878296
8964.391250	0.284568	0.211020	1099.217773
8964.392305	0.268572	0.211020	1382.561035
8964.393246	0.250719	0.211020	1618.487671
8964.394111	0.246896	0.211020	1832.052490
8964.395186	0.245299	0.211020	2095.749023
8964.396203	0.244244	0.211020	2344.145508
8964.397082	0.231815	0.211020	2547.911133
8964.398073	0.091154	0.211020	2638.244385
8964.399116	0.091802	0.211020	2733.993652
8964.400027	0.091791	0.211020	2817.614990
8964.400883	0.091772	0.211020	2896.172119
8964.401972	0.091359	0.211020	2995.661621
8964.402961	0.091370	0.211020	3086.026123
8964.403835	0.091351	0.211020	3165.867187
8964.404807	0.091179	0.211020	3254.493408
8964.405856	0.091102	0.211020	3350.059814
8964.406765	0.091047	0.211020	3432.821777
8965.388728	0.645256	0.231033	271.007660
8965.389718	0.281990	0.231033	550.177490
8965.390646	0.289709	0.231033	819.027832
8965.391520	0.286545	0.231033	1069.468506
8965.392565	0.273292	0.231033	1355.058838
8965.393443	0.255044	0.231033	1578.987427
8965.394362	0.247181	0.231033	1806.147095
8965.395241	0.245907	0.231033	2022.299316
8965.396211	0.244819	0.231033	2259.774170
8965.397149	0.309452	0.231033	2550.040039
8965.398029	0.090509	0.231033	2629.687988
8965.399007	0.091600	0.231033	2719.273193
8965.399951	0.092029	0.231033	2806.148437
8965.400879	0.091780	0.231033	2891.320068
8965.401742	0.091761	0.231033	2970.510254
8965.402782	0.091479	0.231033	3065.648926
8965.403661	0.091487	0.231033	3146.065918
8965.404524	0.091271	0.231033	3224.832520
8965.405488	0.091084	0.231033	3312.637451
8965.406423	0.091227	0.231033	3397.934570
8966.414777	0.635197	0.231593	268.688110
8966.415845	0.282693	0.231593	570.604126
8966.416747	0.289464	0.231593	831.700745
8966.417623	0.285985	0.231593	1082.223755
8966.418559	0.273809	0.231593	1338.508545
8966.419568	0.254436	0.231593	1595.234497
8966.420444	0.246914	0.231593	1811.531250
8966.421331	0.245596	0.231593	2029.374634
8966.422441	0.244563	0.231593	2300.839600
8966.423331	0.281005	0.231593	2550.933838
8966.424194	0.091066	0.231593	2629.523437
8966.425231	0.091666	0.231593	2724.581299
8966.426191	0.092117	0.231593	2813.013428
8966.427065	0.091842	0.231593	2893.283447
8966.427925	0.091659	0.231593	2972.110107
8966.429043	0.091326	0.231593	3074.212158
8966.429948	0.091428	0.231593	3156.954590
8966.430812	0.091278	0.231593	3235.818848
8966.431882	0.091121	0.231593	3333.317871
8966.432847	0.091099	0.231593	3421.228027
8967.434774	0.648450	0.218283	334.600067
8967.435817	0.283773	0.218283	630.575500
8967.436713	0.289424	0.218283	889.899231
8967.437585	0.285348	0.218283	1138.722534
8967.438648	0.270615	0.218283	1426.386475
8967.439599	0.252081	0.218283	1666.115845
8967.440481	0.246566	0.218283	1883.587158
8967.441428	0.245310	0.218283	2115.895752
8967.442457	0.244211	0.218283	2367.189209
8967.443344	0.262756	0.218283	2600.254150
8967.444201	0.091516	0.218283	2678.683350
8967.445235	0.091707	0.218283	2773.507812
8967.446186	0.091875	0.218283	2860.880859
8967.447051	0.092036	0.218283	2940.492187
8967.447955	0.091641	0.218283	3023.335205
8967.449037	0.091304	0.218283	3122.125732
8967.449927	0.091208	0.218283	3203.301270
8967.450789	0.091223	0.218283	3281.935547
8967.451817	0.090978	0.218283	3375.460693
8967.452774	0.091168	0.218283	3462.708740
8968.445450	0.579434	0.232306	290.296234
8968.446348	0.281451	0.232306	543.039612
8968.447211	0.289069	0.232306	792.505859
8968.448317	0.284535	0.232306	1107.201416
8968.449293	0.270531	0.232306	1371.239746
8968.450176	0.253147	0.232306	1594.768555
8968.451206	0.246658	0.232306	1848.825928
8968.452246	0.245416	0.232306	2104.058838
8968.453136	0.244398	0.232306	2321.573242
8968.454030	0.214706	0.232306	2513.520264
8968.455112	0.091036	0.232306	2612.021729
8968.456062	0.091868	0.232306	2699.295898
8968.456923	0.091978	0.232306	2778.488525
8968.457954	0.091648	0.232306	2872.977539
8968.458994	0.091516	0.232306	2968.154297
8968.459866	0.091410	0.232306	3047.863770
8968.460795	0.091300	0.232306	3132.681396
8968.461860	0.091018	0.232306	3229.615723
8968.462810	0.091069	0.232306	3316.131592
8968.463679	0.090970	0.232306	3395.184814
8969.477693	0.528102	0.211411	293.096497
8969.478777	0.284531	0.211411	601.528381
8969.479656	0.289277	0.211411	855.803162
8969.480529	0.283608	0.211411	1103.393311
8969.481645	0.267385	0.211411	1401.795288
8969.482616	0.249705	0.211411	1644.258423
8969.483486	0.246577	0.211411	1858.780518
8969.484524	0.245321	0.211411	2113.423828
8969.485571	0.244244	0.211411	2369.147705
8969.486465	0.226227	0.211411	2571.394531
8969.487412	0.091139	0.211411	2657.703125
8969.488476	0.091831	0.211411	2755.411377
8969.489408	0.091908	0.211411	2841.069580
8969.490267	0.091714	0.211411	2919.851807
8969.491324	0.091597	0.211411	3016.669434
8969.492330	0.091410	0.211411	3108.627930
8969.493212	0.091622	0.211411	3189.438721
8969.494180	0.091190	0.211411	3277.710937
8969.495214	0.090978	0.211411	3371.781982
8969.496138	0.090754	0.211411	3455.639160
8970.479047	0.589358	0.239807	256.370697
8970.479933	0.279939	0.239807	504.396606
8970.480924	0.288904	0.239807	790.700317
8970.481983	0.284667	0.239807	1092.162354
8970.482883	0.271721	0.239807	1336.711426
8970.483757	0.253846	0.239807	1558.573242
8970.484860	0.246401	0.239807	1830.354004
8970.485823	0.245120	0.239807	2066.404297
8970.486688	0.244069	0.239807	2277.523682
8970.487739	0.254194	0.239807	2544.681885
8970.488770	0.091113	0.239807	2638.619629
8970.489652	0.091974	0.239807	2719.740479
8970.490579	0.092018	0.239807	2805.041016
8970.491648	0.091622	0.239807	2902.985352
8970.492587	0.091582	0.239807	2988.980957
8970.493443	0.091447	0.239807	3067.259277
8970.494487	0.091168	0.239807	3162.438965
8970.495518	0.091099	0.239807	3256.361572
8970.496390	0.091069	0.239807	3335.773926
8970.497339	0.090905	0.239807	3422.042236
8971.516355	0.630465	0.202001	271.099976
8971.517348	0.281019	0.202001	550.152100
8971.518403	0.289252	0.202001	855.312622
8971.519320	0.284106	0.202001	1115.838257
8971.520182	0.271560	0.202001	1349.923096
8971.521272	0.251722	0.202001	1624.300537
8971.522271	0.246255	0.202001	1870.309204
8971.523155	0.245112	0.202001	2086.988525
8971.524159	0.244102	0.202001	2332.066406
8971.525228	0.219280	0.202001	2566.476562
8971.526124	0.091205	0.202001	2648.196045
8971.526990	0.091820	0.202001	2727.712158
8971.528086	0.091732	0.202001	2828.250732
8971.529053	0.091780	0.202001	2917.001709
8971.529917	0.091322	0.202001	2995.904053
8971.530930	0.091230	0.202001	3088.320557
8971.531967	0.091102	0.202001	3182.793701
8971.532852	0.091091	0.202001	3263.409424
8971.533756	0.090996	0.202001	3345.669922
8971.534835	0.090879	0.202001	3443.728271
8972.516788	0.647303	0.236069	271.867462
8972.517857	0.282850	0.236069	574.234497
8972.518857	0.289464	0.236069	863.698608
8972.519756	0.284608	0.236069	1119.561279
8972.520745	0.269908	0.236069	1386.500732
8972.521814	0.250492	0.236069	1654.276611
8972.522709	0.246519	0.236069	1874.910767
8972.523593	0.245270	0.236069	2091.729248
8972.524700	0.244189	0.236069	2362.046875
8972.525665	0.236122	0.236069	2589.904541
8972.526533	0.091022	0.236069	2668.911377
8972.527572	0.091930	0.236069	2764.426514
8972.528615	0.091813	0.236069	2860.187256
8972.529505	0.091685	0.236069	2941.786621
8972.530447	0.091439	0.236069	3027.922363
8972.531496	0.091307	0.236069	3123.703857
8972.532433	0.091421	0.236069	3209.365234
8972.533296	0.091285	0.236069	3288.144531
8972.534363	0.090959	0.236069	3385.198242
8972.535360	0.090839	0.236069	3475.764404
8973.550021	1.162255	0.205466	500.931732
8973.550884	2.216675	0.205466	2413.922119
8973.551964	2.354619	0.205466	4956.910645
8973.552852	1.661598	0.205466	6432.409668
8973.553725	0.829061	0.205466	7156.180176
8973.554713	0.755603	0.205466	7902.715820
8973.555657	0.727273	0.205466	8589.261719
8973.556572	0.709069	0.205466	9238.059570
8973.557453	0.694845	0.205466	9850.217773
8973.558491	0.572432	0.205466	10444.401367
8973.559393	0.090319	0.205466	10525.869141
8973.560268	0.091714	0.205466	10606.119141
8973.561193	0.091912	0.205466	10691.137695
8973.562200	0.091710	0.205466	10783.490234
8973.563125	0.091787	0.205466	10868.393555
8973.563986	0.091384	0.205466	10947.075195
8973.565066	0.091271	0.205466	11045.647461
8973.565946	0.091362	0.205466	11126.045898
8973.566806	0.091263	0.205466	11204.532227
8973.567693	0.091058	0.205466	11285.300781
8974.555590	0.644590	0.228874	279.751984
8974.556493	0.280093	0.228874	532.675781
8974.557370	0.288702	0.228874	785.867798
8974.558384	0.285655	0.228874	1075.522461
8974.559287	0.274006	0.228874	1322.950195
8974.560166	0.256655	0.228874	1548.550171
8974.561107	0.246907	0.228874	1780.889404
8974.562095	0.245479	0.228874	2023.422119
8974.563029	0.244373	0.228874	2251.666016
8974.563896	0.326854	0.228874	2535.048584
8974.564950	0.090337	0.228874	2630.263672
8974.565837	0.091750	0.228874	2711.646240
8974.566708	0.092194	0.228874	2791.946777
8974.567585	0.091780	0.228874	2872.437744
8974.568621	0.091655	0.228874	2967.392578
8974.569515	0.091392	0.228874	3049.096680
8974.570391	0.091450	0.228874	3129.207031
8974.571395	0.091238	0.228874	3220.809814
8974.572330	0.091256	0.228874	3306.134277
8974.573252	0.091198	0.228874	3390.218262
8975.584804	0.538286	0.203165	277.217377
8975.585695	0.281276	0.203165	527.833984
8975.586557	0.289120	0.203165	777.055298
8975.587651	0.284579	0.203165	1088.384521
8975.588621	0.271007	0.203165	1351.261353
8975.589496	0.253370	0.203165	1572.960449
8975.590365	0.246588	0.203165	1787.245483
8975.591481	0.245186	0.203165	2060.872559
8975.592363	0.244219	0.203165	2276.273437
8975.593234	0.279016	0.203165	2519.296387
8975.594286	0.091000	0.203165	2615.028076
8975.595264	0.091802	0.203165	2704.810303
8975.596143	0.091750	0.203165	2785.458984
8975.597001	0.091842	0.203165	2864.259521
8975.598130	0.091469	0.203165	2967.527344
8975.599035	0.091399	0.203165	3050.243408
8975.599900	0.091249	0.203165	3129.173584
8975.600975	0.091000	0.203165	3226.998291
8975.601952	0.090831	0.203165	3315.740479
8975.602835	0.091077	0.203165	3396.161133
8976.596411	0.631527	0.225172	267.767487
8976.597532	0.283656	0.225172	585.745850
8976.598510	0.289490	0.225172	868.866821
8976.599392	0.284674	0.225172	1119.949341
8976.600424	0.269432	0.225172	1398.003540
8976.601470	0.250195	0.225172	1659.707886
8976.602356	0.246566	0.225172	1878.165527
8976.603278	0.245383	0.225172	2104.408936
8976.604370	0.244266	0.225172	2371.147705
8976.605320	0.201683	0.225172	2562.746826
8976.606182	0.091187	0.225172	2641.349609
8976.607234	0.091875	0.225172	2738.002197
8976.608261	0.091904	0.225172	2832.387939
8976.609135	0.092109	0.225172	2912.891602
8976.610086	0.091505	0.225172	2999.913086
8976.611138	0.091212	0.225172	3095.868164
8976.612068	0.091329	0.225172	3180.804443
8976.612936	0.091289	0.225172	3260.043457
8976.613987	0.091011	0.225172	3355.695801
8976.614996	0.090875	0.225172	3447.388916
8977.617421	0.569938	0.206593	288.958405
8977.618377	0.283092	0.206593	559.594360
8977.619258	0.289856	0.206593	814.957458
8977.620281	0.285205	0.206593	1106.722290
8977.621320	0.270923	0.206593	1388.211182
8977.622207	0.252905	0.206593	1612.538208
8977.623098	0.246833	0.206593	1832.466797
8977.624193	0.245541	0.206593	2101.333984
8977.625157	0.244457	0.206593	2336.990234
8977.626030	0.267938	0.206593	2570.900391
8977.627059	0.091066	0.206593	2664.606934
8977.628089	0.091868	0.206593	2759.230713
8977.628965	0.091930	0.206593	2839.761230
8977.629894	0.091611	0.206593	2924.868164
8977.630968	0.091348	0.206593	3022.975586
8977.631899	0.091216	0.206593	3107.897461
8977.632766	0.091212	0.206593	3186.978516
8977.633804	0.091029	0.206593	3281.466797
8977.634828	0.091124	0.206593	3374.778076
8977.635714	0.091263	0.206593	3455.637451
