time (s)	coil I (A)	last det (V)	int current (uC)
7162.530277	0.548408	0.217119	242.944839
7162.531155	0.278566	0.217119	487.525513
7162.532021	0.287333	0.217119	736.355652
7162.533097	0.285835	0.217119	1043.914062
7162.534000	0.276965	0.217119	1294.013794
7162.534879	0.262610	0.217119	1524.847900
7162.535868	0.247614	0.217119	1769.737671
7162.536825	0.365544	0.217119	2119.563721
7162.537750	0.091509	0.217119	2204.209473
7162.538614	0.092014	0.217119	2283.709717
7162.539657	0.091882	0.217119	2379.542969
7162.540545	0.092095	0.217119	2461.322998
7162.541417	0.092135	0.217119	2541.664795
7162.542381	0.091531	0.217119	2629.900391
7162.543347	0.091699	0.217119	2718.481934
7162.544244	0.091644	0.217119	2800.686768
7162.545124	0.091582	0.217119	2881.279053
7162.546154	0.091176	0.217119	2975.189941
7163.565116	0.456797	0.197932	247.583908
7163.566184	0.282418	0.197932	549.206543
7163.567057	0.288102	0.197932	800.719421
7163.568007	0.284630	0.197932	1071.118042
7163.569075	0.272135	0.197932	1361.758179
7163.570017	0.254773	0.197932	1601.754272
7163.570888	0.245739	0.197932	1815.792480
7163.571936	0.291991	0.197932	2121.799072
7163.572952	0.091816	0.197932	2215.084473
7163.573838	0.092904	0.197932	2297.397461
7163.574794	0.091996	0.197932	2385.345459
7163.575855	0.091699	0.197932	2482.638428
7163.576777	0.091948	0.197932	2567.414795
7163.577640	0.091421	0.197932	2646.311035
7163.578707	0.091047	0.197932	2743.458496
7163.579695	0.091436	0.197932	2833.796875
7163.580584	0.091648	0.197932	2915.271973
7163.581570	0.091033	0.197932	3005.030273
7164.567481	0.644279	0.223041	270.597015
7164.568549	0.281188	0.223041	570.905518
7164.569558	0.288626	0.223041	862.128662
7164.570456	0.285366	0.223041	1118.387451
7164.571436	0.274351	0.223041	1387.250977
7164.572502	0.255319	0.223041	1659.420654
7164.573422	0.245874	0.223041	1885.624756
7164.574293	0.354210	0.223041	2194.141846
7164.575377	0.091029	0.223041	2292.817383
7164.576336	0.092655	0.223041	2381.673584
7164.577209	0.092897	0.223041	2462.772461
7164.578227	0.091454	0.223041	2555.872559
7164.579272	0.091498	0.223041	2651.487793
7164.580159	0.092087	0.223041	2733.169434
7164.581018	0.091278	0.223041	2811.577393
7164.582121	0.090795	0.223041	2911.723877
7164.583076	0.091963	0.223041	2999.548340
7164.583931	0.092087	0.223041	3078.282959
7165.602309	0.593203	0.195354	296.008362
7165.603232	0.280481	0.195354	554.892273
7165.604093	0.288420	0.195354	803.222229
7165.605181	0.285773	0.195354	1114.142944
7165.606182	0.274541	0.195354	1388.958496
7165.607067	0.258977	0.195354	1618.153198
7165.608072	0.246584	0.195354	1865.970581
7165.609135	0.282524	0.195354	2166.293945
7165.610028	0.091425	0.195354	2247.936035
7165.610887	0.092443	0.195354	2327.344238
7165.611983	0.091403	0.195354	2427.521484
7165.612953	0.092010	0.195354	2516.771729
7165.613812	0.092589	0.195354	2596.305664
7165.614810	0.091124	0.195354	2687.247559
7165.615856	0.091282	0.195354	2782.728271
7165.616743	0.091820	0.195354	2864.172607
7165.617621	0.091040	0.195354	2944.105713
7165.618726	0.090883	0.195354	3044.531006
7166.604251	0.646652	0.225821	296.813110
7166.605332	0.282367	0.225821	602.051758
7166.606288	0.288948	0.225821	878.285767
7166.607157	0.286146	0.225821	1126.946899
7166.608181	0.274358	0.225821	1407.889404
7166.609221	0.255813	0.225821	1673.934937
7166.610118	0.246346	0.225821	1894.907715
7166.611080	0.216661	0.225821	2103.335937
7166.612123	0.090740	0.225821	2197.977539
7166.613074	0.092084	0.225821	2285.549072
7166.613937	0.092219	0.225821	2365.134277
7166.615016	0.091208	0.225821	2463.548340
7166.616015	0.091615	0.225821	2555.071777
7166.616902	0.092161	0.225821	2636.818359
7166.617882	0.091110	0.225821	2726.105713
7166.618926	0.090736	0.225821	2820.834229
7166.619839	0.091011	0.225821	2903.927002
7166.620699	0.090956	0.225821	2982.148926
7167.638552	0.551660	0.190718	279.691711
7167.639500	0.281418	0.190718	546.476440
7167.640411	0.288904	0.190718	809.667847
7167.641299	0.286919	0.190718	1064.451904
7167.642214	0.277782	0.190718	1318.622437
7167.643175	0.261379	0.190718	1569.807983
7167.644098	0.247346	0.190718	1798.108521
7167.644972	0.275592	0.190718	2038.975952
7167.646044	0.090538	0.190718	2136.032959
7167.646933	0.092010	0.190718	2217.830322
7167.647810	0.092025	0.190718	2298.536377
7167.648813	0.091370	0.190718	2390.180176
7167.649728	0.092260	0.190718	2474.597656
7167.650642	0.091630	0.190718	2558.347168
7167.651509	0.091707	0.190718	2637.856689
7167.652470	0.091381	0.190718	2725.673340
7167.653400	0.091648	0.190718	2810.906006
7167.654288	0.091655	0.190718	2892.295898
7168.643021	0.575903	0.215814	255.125183
7168.643900	0.278807	0.215814	500.196869
7168.644907	0.288142	0.215814	790.355957
7168.645923	0.285516	0.215814	1080.440552
7168.646823	0.275922	0.215814	1328.770020
7168.647687	0.260728	0.215814	1554.038574
7168.648786	0.246643	0.215814	1825.099365
7168.649690	0.362937	0.215814	2153.194336
7168.650561	0.092102	0.215814	2233.415283
7168.651562	0.091721	0.215814	2325.228271
7168.652549	0.093094	0.215814	2417.112549
7168.653439	0.092457	0.215814	2499.399414
7168.654295	0.092025	0.215814	2578.172852
7168.655358	0.091370	0.215814	2675.298828
7168.656274	0.091923	0.215814	2759.500000
7168.657147	0.091824	0.215814	2839.662109
7168.658132	0.090927	0.215814	2929.224609
7168.659141	0.091395	0.215814	3021.442383
7169.673662	0.631165	0.192353	268.876099
7169.674736	0.281931	0.192353	571.670166
7169.675734	0.289065	0.192353	860.156982
7169.676630	0.286110	0.192353	1116.511230
7169.677622	0.274973	0.192353	1389.284546
7169.678680	0.255930	0.192353	1660.058716
7169.679579	0.246548	0.192353	1881.705200
7169.680448	0.329890	0.192353	2168.379639
7169.681549	0.090956	0.192353	2268.521973
7169.682542	0.092245	0.192353	2360.121094
7169.683420	0.092505	0.192353	2441.340332
7169.684423	0.091509	0.192353	2533.123535
7169.685471	0.091747	0.192353	2629.274170
7169.686337	0.092417	0.192353	2709.307373
7169.687215	0.091348	0.192353	2789.510498
7169.688315	0.090974	0.192353	2889.582031
7169.689271	0.091886	0.192353	2977.425049
7169.690141	0.091615	0.192353	3057.130127
7170.681366	0.566276	0.223258	284.836639
7170.682375	0.282499	0.223258	569.877930
7170.683261	0.289189	0.223258	826.099792
7170.684265	0.285846	0.223258	1113.089111
7170.685323	0.274021	0.223258	1403.003296
7170.686215	0.257347	0.223258	1632.557129
7170.687079	0.246742	0.223258	1845.742187
7170.688187	0.295192	0.223258	2172.814453
7170.689142	0.092336	0.223258	2260.995850
7170.689999	0.093223	0.223258	2340.887695
7170.691051	0.091597	0.223258	2437.247314
7170.692097	0.092120	0.223258	2533.605225
7170.692990	0.092373	0.223258	2616.094238
7170.693915	0.091589	0.223258	2700.814453
7170.694973	0.091227	0.223258	2797.332520
7170.695919	0.091794	0.223258	2884.170166
7170.696790	0.091754	0.223258	2964.088135
7170.697848	0.090824	0.223258	3060.179932
7171.707440	0.595693	0.194492	322.270111
7171.708495	0.283198	0.194492	621.044250
7171.709400	0.289091	0.194492	882.671265
7171.710267	0.285989	0.194492	1130.623535
7171.711378	0.273182	0.194492	1434.129150
7171.712357	0.255330	0.194492	1684.096802
7171.713224	0.246284	0.194492	1897.625244
7171.714300	0.251532	0.194492	2168.273682
7171.715343	0.091633	0.194492	2263.847168
7171.716220	0.092509	0.194492	2344.977051
7171.717138	0.091945	0.194492	2429.382080
7171.718191	0.091556	0.194492	2525.791016
7171.719135	0.092150	0.194492	2612.780273
7171.719992	0.091831	0.194492	2691.479492
7171.721010	0.091132	0.194492	2784.251465
7171.722046	0.091575	0.194492	2879.122803
7171.722918	0.091458	0.194492	2958.873779
7171.723844	0.090996	0.194492	3043.136230
7172.721084	0.646102	0.223355	275.239563
7172.722142	0.282030	0.223355	573.627319
7172.723033	0.289156	0.223355	831.265747
7172.723909	0.287260	0.223355	1082.905029
7172.724921	0.276709	0.223355	1362.934570
7172.725847	0.260669	0.223355	1604.313965
7172.726768	0.247335	0.223355	1832.109741
7172.727632	0.325287	0.223355	2113.157715
7172.728663	0.091816	0.223355	2207.820312
7172.729560	0.092432	0.223355	2290.731445
7172.730434	0.092388	0.223355	2371.478271
7172.731388	0.091593	0.223355	2458.857910
7172.732357	0.091663	0.223355	2547.678955
7172.733270	0.092172	0.223355	2631.831543
7172.734133	0.091739	0.223355	2711.002686
7172.735168	0.091304	0.223355	2805.501953
7172.736056	0.091959	0.223355	2887.161865
7172.736924	0.091439	0.223355	2966.531006
7173.739958	0.648193	0.200607	272.889404
7173.740943	0.280118	0.200607	548.806030
7173.741949	0.289098	0.200607	839.638489
7173.742836	0.286780	0.200607	1094.012207
7173.743821	0.276343	0.200607	1366.209839
7173.744863	0.257900	0.200607	1634.942017
7173.745775	0.246790	0.200607	1860.014038
7173.746644	0.331897	0.200607	2148.432617
7173.747737	0.090908	0.200607	2247.795410
7173.748721	0.091875	0.200607	2338.200439
7173.749596	0.092358	0.200607	2419.014160
7173.750568	0.091476	0.200607	2507.928711
7173.751640	0.091344	0.200607	2605.849365
7173.752527	0.091952	0.200607	2687.410645
7173.753397	0.091190	0.200607	2766.746094
7173.754487	0.090941	0.200607	2865.872070
7173.755471	0.091637	0.200607	2956.042725
7173.756338	0.091337	0.200607	3035.231689
7174.762942	0.632498	0.217023	269.443970
7174.763954	0.280840	0.217023	553.653931
7174.765006	0.288977	0.217023	857.657837
7174.765898	0.286135	0.217023	1112.890503
7174.766795	0.276145	0.217023	1360.592529
7174.767894	0.257117	0.217023	1643.163818
7174.768849	0.246284	0.217023	1878.365234
7174.769719	0.316315	0.217023	2153.559082
7174.770782	0.090981	0.217023	2250.272461
7174.771789	0.092106	0.217023	2343.022949
7174.772666	0.092260	0.217023	2423.934570
7174.773636	0.091890	0.217023	2513.067627
7174.774679	0.091260	0.217023	2608.251465
7174.775604	0.091699	0.217023	2693.073242
7174.776462	0.091692	0.217023	2771.744873
7174.777544	0.090905	0.217023	2870.103516
7174.778549	0.090978	0.217023	2961.536133
7174.779420	0.091326	0.217023	3041.080811
7175.772096	0.645798	0.209325	278.984863
7175.772964	0.278906	0.209325	521.075500
7175.774006	0.288735	0.209325	821.937744
7175.775040	0.285890	0.209325	1117.547852
7175.775935	0.276141	0.209325	1364.694336
7175.776906	0.259373	0.209325	1616.545044
7175.777970	0.246379	0.209325	1878.692749
7175.778895	0.339283	0.209325	2192.530029
7175.779762	0.091655	0.209325	2271.995117
7175.780839	0.091593	0.209325	2370.640869
7175.781827	0.092150	0.209325	2461.684814
7175.782719	0.092263	0.209325	2543.983643
7175.783701	0.091395	0.209325	2633.733887
7175.784762	0.091619	0.209325	2730.941162
7175.785666	0.092399	0.209325	2814.469482
7175.786529	0.091498	0.209325	2893.432129
7175.787618	0.090930	0.209325	2992.455078
7175.788574	0.091425	0.209325	3079.856934
7176.805347	0.581104	0.211222	261.496582
7176.806221	0.279686	0.211222	505.942413
7176.807083	0.288724	0.211222	754.822815
7176.808145	0.287395	0.211222	1060.036377
7176.809031	0.278540	0.211222	1306.822876
7176.809897	0.264188	0.211222	1535.609863
7176.810824	0.248851	0.211222	1766.295044
7176.811834	0.383134	0.211222	2153.260010
7176.812757	0.091476	0.211222	2237.692139
7176.813650	0.092432	0.211222	2320.233643
7176.814649	0.092205	0.211222	2412.345947
7176.815558	0.092549	0.211222	2496.472900
7176.816478	0.092113	0.211222	2581.216797
7176.817343	0.091853	0.211222	2660.669678
7176.818378	0.091652	0.211222	2755.529053
7176.819260	0.092281	0.211222	2836.921387
7176.820127	0.092216	0.211222	2916.872314
7176.821124	0.091285	0.211222	3007.883789
7177.803820	0.662582	0.211149	357.131561
7177.804852	0.282920	0.211149	649.104919
7177.805732	0.289175	0.211149	903.578735
7177.806603	0.286630	0.211149	1153.233154
7177.807670	0.274647	0.211149	1446.281738
7177.808608	0.257992	0.211149	1688.278198
7177.809485	0.246683	0.211149	1904.619507
7177.810463	0.286212	0.211149	2184.534912
7177.811480	0.091384	0.211149	2277.472656
7177.812371	0.092611	0.211149	2359.989014
7177.813231	0.092014	0.211149	2439.121094
7177.814303	0.091512	0.211149	2537.222412
7177.815238	0.091666	0.211149	2622.930420
7177.816113	0.092051	0.211149	2703.474854
7177.817041	0.091406	0.211149	2788.299805
7177.818084	0.091564	0.211149	2883.800781
7177.818966	0.091908	0.211149	2964.863525
7177.819821	0.091791	0.211149	3043.344727
7178.848207	0.576526	0.204499	256.554016
7178.849090	0.279697	0.204499	503.526703
7178.850090	0.288926	0.204499	792.452515
7178.851145	0.286351	0.204499	1094.553101
7178.852040	0.276211	0.204499	1341.761841
7178.852903	0.260446	0.204499	1566.526367
7178.854020	0.246910	0.204499	1842.325317
7178.854995	0.300179	0.204499	2135.000244
7178.855852	0.091377	0.204499	2213.310303
7178.856921	0.091575	0.204499	2311.203613
7178.857950	0.092146	0.204499	2406.021729
7178.858833	0.092091	0.204499	2487.338135
7178.859749	0.091827	0.204499	2571.452148
7178.860837	0.091110	0.204499	2670.579346
7178.861762	0.091787	0.204499	2755.482422
7178.862635	0.091150	0.204499	2835.056396
7178.863658	0.090795	0.204499	2927.939453
7178.864675	0.091146	0.204499	3020.635254
7179.834818	0.617670	0.230413	266.215607
7179.835698	0.279500	0.230413	512.175171
7179.836703	0.289153	0.230413	802.773804
7179.837751	0.286864	0.230413	1103.407227
7179.838646	0.276844	0.230413	1351.182983
7179.839533	0.260713	0.230413	1582.435303
7179.840646	0.246888	0.230413	1857.222168
7179.841616	0.291973	0.230413	2140.435547
7179.842475	0.091176	0.230413	2218.755371
7179.843513	0.091600	0.230413	2313.836426
7179.844538	0.091838	0.230413	2407.970703
7179.845419	0.092303	0.230413	2489.290039
7179.846344	0.091589	0.230413	2574.010254
7179.847400	0.091208	0.230413	2670.326416
7179.848335	0.091729	0.230413	2756.092529
7179.849202	0.091985	0.230413	2835.843506
7179.850231	0.090853	0.230413	2929.331543
7179.851254	0.091187	0.230413	3022.615234
7180.889020	0.632845	0.195113	268.326477
7180.889912	0.279796	0.195113	517.904663
7180.891020	0.289541	0.195113	838.716125
7180.891916	0.287314	0.195113	1096.149902
7180.892786	0.278295	0.195113	1338.266235
7180.893833	0.260273	0.195113	1610.772461
7180.894816	0.246995	0.195113	1853.568115
7180.895699	0.350303	0.195113	2162.885498
7180.896586	0.091161	0.195113	2243.745117
7180.897677	0.092113	0.195113	2344.240479
7180.898557	0.092527	0.195113	2425.664062
7180.899414	0.092142	0.195113	2504.630127
7180.900439	0.091333	0.195113	2598.246582
7180.901407	0.091652	0.195113	2686.965332
7180.902319	0.092007	0.195113	2770.875488
7180.903190	0.091318	0.195113	2850.413818
7180.904310	0.091351	0.195113	2952.727295
7180.905212	0.091179	0.195113	3034.970947
7181.868992	0.630791	0.231327	268.716980
7181.870054	0.281990	0.231327	568.190063
7181.871092	0.289427	0.231327	868.615784
7181.871972	0.286150	0.231327	1120.427734
7181.872938	0.275343	0.231327	1386.409058
7181.873996	0.256315	0.231327	1657.589966
7181.874911	0.246449	0.231327	1883.090820
7181.875785	0.327261	0.231327	2169.116699
7181.876849	0.091077	0.231327	2266.022217
7181.877858	0.092106	0.231327	2358.956787
7181.878746	0.092655	0.231327	2441.234375
7181.879728	0.091520	0.231327	2531.106689
7181.880786	0.091238	0.231327	2627.636230
7181.881697	0.091633	0.231327	2711.114258
7181.882557	0.091406	0.231327	2789.723633
7181.883664	0.090912	0.231327	2890.363037
7181.884633	0.091688	0.231327	2979.208984
7181.885513	0.091355	0.231327	3059.601318
7182.927815	0.603603	0.194766	262.567505
7182.928696	0.279408	0.194766	508.725891
7182.929694	0.288864	0.194766	797.011719
7182.930748	0.286622	0.194766	1099.111572
7182.931654	0.276683	0.194766	1349.786743
7182.932527	0.260760	0.194766	1577.430664
7182.933632	0.247031	0.194766	1850.400146
7182.934603	0.293965	0.194766	2135.840088
7182.935470	0.091696	0.194766	2215.340088
7182.936532	0.091549	0.194766	2312.565186
7182.937557	0.091813	0.194766	2406.673340
7182.938443	0.092750	0.194766	2488.850098
7182.939366	0.091739	0.194766	2573.525635
7182.940428	0.091113	0.194766	2670.287842
7182.941363	0.091714	0.194766	2756.040283
7182.942223	0.091769	0.194766	2834.961426
7182.943294	0.090743	0.194766	2932.147705
7182.944315	0.091025	0.194766	3025.084717
7183.903261	0.552371	0.238598	281.709015
7183.904276	0.282836	0.238598	568.787231
7183.905173	0.289135	0.238598	828.140869
7183.906155	0.286022	0.238598	1109.014160
7183.907227	0.273519	0.238598	1402.226807
7183.908147	0.256490	0.238598	1638.197998
7183.909018	0.246687	0.238598	1853.062378
7183.910122	0.188760	0.238598	2061.453125
7183.911086	0.090663	0.238598	2148.852051
7183.911961	0.091403	0.238598	2228.829346
7183.912968	0.091307	0.238598	2320.775879
7183.914008	0.091047	0.238598	2415.465088
7183.914908	0.091172	0.238598	2497.519775
7183.915778	0.090875	0.238598	2576.581299
7183.916879	0.090721	0.238598	2676.465576
7183.917837	0.090721	0.238598	2763.376709
7183.918699	0.090667	0.238598	2841.531250
7183.919741	0.090604	0.238598	2935.940918
7184.965568	0.617018	0.192297	265.317657
7184.966431	0.279591	0.192297	506.604736
7184.967493	0.289515	0.192297	814.070068
7184.968389	0.287732	0.192297	1071.877930
7184.969271	0.279133	0.192297	1318.073486
7184.970240	0.263313	0.192297	1573.223755
7184.971193	0.247888	0.192297	1809.461182
7184.972124	0.346095	0.192297	2131.675537
7184.972995	0.091245	0.192297	2211.150146
7184.974032	0.092007	0.192297	2306.561279
7184.974916	0.091670	0.192297	2387.597412
7184.975787	0.092318	0.192297	2468.006592
7184.976711	0.091538	0.192297	2552.587891
7184.977703	0.092183	0.192297	2644.032959
7184.978587	0.091681	0.192297	2725.078857
7184.979466	0.091267	0.192297	2805.302734
7184.980576	0.091080	0.192297	2906.401855
7184.981469	0.091267	0.192297	2987.903320
7185.939972	0.578840	0.232342	284.210602
7185.940931	0.281470	0.232342	554.140015
7185.941800	0.288940	0.232342	805.229248
7185.942866	0.286139	0.232342	1110.253296
7185.943901	0.274219	0.232342	1394.069702
7185.944797	0.257893	0.232342	1625.141846
7185.945729	0.246812	0.232342	1855.170166
7185.946803	0.291621	0.232342	2168.371094
7185.947751	0.091685	0.232342	2255.288086
7185.948622	0.092516	0.232342	2335.869385
7185.949686	0.091483	0.232342	2433.207520
7185.950702	0.092003	0.232342	2526.682861
7185.951590	0.091871	0.232342	2608.264648
7185.952551	0.091318	0.232342	2696.021484
7185.953595	0.091227	0.232342	2791.262207
7185.954513	0.092065	0.232342	2875.778320
7185.955371	0.091322	0.232342	2954.132568
7185.956445	0.090948	0.232342	3051.811279
7187.002906	0.552697	0.186710	281.322540
7187.003921	0.282847	0.186710	568.411926
7187.004822	0.289354	0.186710	829.120117
7187.005801	0.286198	0.186710	1109.307495
7187.006871	0.273721	0.186710	1402.188721
7187.007792	0.256575	0.186710	1638.494019
7187.008660	0.246650	0.186710	1852.586548
7187.009764	0.265789	0.186710	2146.017090
7187.010765	0.091300	0.186710	2237.408447
7187.011658	0.092655	0.186710	2320.149414
7187.012658	0.091692	0.186710	2411.841309
7187.013716	0.091465	0.186710	2508.611084
7187.014592	0.091707	0.186710	2588.946045
7187.015454	0.091377	0.186710	2667.712891
7187.016545	0.091007	0.186710	2767.001709
7187.017502	0.091161	0.186710	2854.242676
7187.018368	0.091311	0.186710	2933.318115
7187.019423	0.090828	0.186710	3029.141357
7187.977667	0.631531	0.235646	271.558228
7187.978536	0.279097	0.235646	514.093262
7187.979597	0.288783	0.235646	820.491943
7187.980611	0.285919	0.235646	1110.414062
7187.981504	0.276127	0.235646	1356.995239
7187.982490	0.259014	0.235646	1612.382690
7187.983546	0.246489	0.235646	1872.675293
7187.984448	0.298813	0.235646	2142.205078
7187.985309	0.090901	0.235646	2220.470703
7187.986417	0.091578	0.235646	2321.939453
7187.987392	0.092135	0.235646	2411.770996
7187.988255	0.092003	0.235646	2491.169678
7187.989360	0.091311	0.235646	2592.068359
7187.990385	0.091542	0.235646	2685.898682
7187.991272	0.091608	0.235646	2767.154785
7187.992202	0.090912	0.235646	2851.702881
7187.993249	0.090747	0.235646	2946.715088
7187.994190	0.091523	0.235646	3032.838623
7189.039040	1.123169	0.194678	478.469971
7189.040041	2.169921	0.194678	2650.560547
7189.040947	2.324447	0.194678	4756.509766
7189.041876	1.841104	0.194678	6466.895020
7189.042739	0.909935	0.194678	7252.169434
7189.043770	0.755156	0.194678	8030.735352
7189.044671	0.729529	0.194678	8688.041016
7189.045556	0.647043	0.194678	9260.674805
7189.046551	0.090406	0.194678	9350.628906
7189.047501	0.092076	0.194678	9438.101562
7189.048423	0.092604	0.194678	9523.482422
7189.049282	0.092373	0.194678	9602.831055
7189.050316	0.091805	0.194678	9697.757812
7189.051197	0.092120	0.194678	9778.916016
7189.052067	0.092062	0.194678	9859.009766
7189.053016	0.091388	0.194678	9945.737305
7189.054016	0.091934	0.194678	10037.670898
7189.054917	0.091198	0.194678	10119.839844
7190.014410	0.635555	0.236894	277.102173
7190.015270	0.279196	0.236894	517.210327
7190.016304	0.288995	0.236894	816.031494
7190.017264	0.287003	0.236894	1091.554565
7190.018144	0.277899	0.236894	1336.105835
7190.019085	0.262306	0.236894	1582.935669
7190.020147	0.247284	0.236894	1845.551270
7190.021053	0.354078	0.236894	2166.346191
7190.021914	0.091329	0.236894	2244.980713
7190.022960	0.091688	0.236894	2340.886719
7190.023933	0.092047	0.236894	2430.448486
7190.024812	0.092465	0.236894	2511.724854
7190.025691	0.091754	0.236894	2592.376709
7190.026780	0.091443	0.236894	2691.958008
7190.027663	0.092410	0.236894	2773.555664
7190.028522	0.091824	0.236894	2852.432129
7190.029553	0.090963	0.236894	2946.215088
7190.030516	0.091245	0.236894	3034.084229
7191.076364	0.579639	0.190585	290.978607
7191.077285	0.281396	0.190585	550.144775
7191.078150	0.289054	0.190585	800.176453
7191.079213	0.286469	0.190585	1104.692505
7191.080243	0.274761	0.190585	1387.696045
7191.081142	0.258750	0.190585	1620.312256
7191.082129	0.247024	0.190585	1864.124878
7191.083194	0.307159	0.190585	2191.249756
7191.084103	0.092600	0.190585	2275.423340
7191.084967	0.092300	0.190585	2355.170410
7191.086071	0.091827	0.190585	2456.547852
7191.087036	0.092296	0.190585	2545.613525
7191.087912	0.092421	0.190585	2626.573975
7191.088923	0.091208	0.190585	2718.785645
7191.089972	0.091187	0.190585	2814.440430
7191.090866	0.092732	0.190585	2897.342773
7191.091744	0.091322	0.190585	2977.523437
7191.092844	0.090842	0.190585	3077.449951
7192.051134	0.634691	0.236447	270.378448
7192.052156	0.280920	0.236447	557.479126
7192.053220	0.289248	0.236447	865.239014
7192.054110	0.286179	0.236447	1119.938477
7192.054997	0.275750	0.236447	1364.528320
7192.056099	0.256864	0.236447	1647.592529
7192.057054	0.246482	0.236447	1882.982788
7192.057922	0.318695	0.236447	2159.610107
7192.058945	0.090981	0.236447	2252.684082
7192.059986	0.092021	0.236447	2348.478516
7192.060872	0.091897	0.236447	2429.899170
7192.061807	0.091956	0.236447	2515.877686
7192.062870	0.091263	0.236447	2612.890625
7192.063808	0.092150	0.236447	2699.326904
7192.064679	0.091652	0.236447	2779.155518
7192.065725	0.090894	0.236447	2874.230225
7192.066747	0.091498	0.236447	2967.740967
7192.067638	0.091608	0.236447	3049.363281
7193.113539	0.631212	0.188160	270.790009
7193.114416	0.279500	0.188160	515.911072
7193.115279	0.288776	0.188160	765.124451
7193.116367	0.287322	0.188160	1077.730469
7193.117263	0.278075	0.188160	1326.885620
7193.118196	0.262592	0.188160	1571.883545
7193.119063	0.248240	0.188160	1787.107422
7193.120118	0.373506	0.188160	2181.156006
7193.120995	0.091282	0.188160	2261.210205
7193.121873	0.092823	0.188160	2342.709229
7193.122866	0.092040	0.188160	2434.104736
7193.123796	0.092358	0.188160	2519.998047
7193.124716	0.092164	0.188160	2604.789307
7193.125583	0.091655	0.188160	2684.254395
7193.126621	0.091373	0.188160	2779.099854
7193.127503	0.091985	0.188160	2860.230469
7193.128379	0.091571	0.188160	2940.446777
7193.129347	0.091080	0.188160	3028.612549
7194.087878	0.617117	0.236250	267.211517
7194.088740	0.279152	0.236250	507.840210
7194.089811	0.288845	0.236250	817.193420
7194.090700	0.286835	0.236250	1072.189453
7194.091575	0.278042	0.236250	1315.476196
7194.092545	0.262112	0.236250	1569.724609
7194.093534	0.247500	0.236250	1814.502075
7194.094435	0.361776	0.236250	2140.462402
7194.095319	0.090974	0.236250	2220.883545
7194.096333	0.091567	0.236250	2313.732910
7194.097231	0.092706	0.236250	2396.983154
7194.098106	0.092175	0.236250	2477.636475
7194.098966	0.091611	0.236250	2556.422119
7194.100031	0.091890	0.236250	2654.284668
7194.100925	0.091241	0.236250	2735.854492
7194.101795	0.091831	0.236250	2815.747559
7194.102795	0.091241	0.236250	2906.989014
7194.103714	0.091747	0.236250	2991.304443
7195.150275	0.631278	0.193538	273.974670
7195.151144	0.279364	0.193538	516.742004
7195.152220	0.289241	0.193538	827.965027
7195.153214	0.286403	0.193538	1112.649170
7195.154105	0.276738	0.193538	1359.222900
7195.155091	0.259677	0.193538	1615.263916
7195.156163	0.246639	0.193538	1879.661377
7195.157072	0.331165	0.193538	2180.689941
7195.157932	0.091326	0.193538	2259.229980
7195.159025	0.091666	0.193538	2359.421143
7195.159985	0.092490	0.193538	2448.211670
7195.160852	0.092351	0.193538	2528.280029
7195.161861	0.091410	0.193538	2620.512695
7195.162920	0.091267	0.193538	2717.164551
7195.163793	0.091941	0.193538	2797.428955
7195.164672	0.091611	0.193538	2877.955322
7195.165758	0.090901	0.193538	2976.673584
7195.166713	0.091707	0.193538	3064.253418
7196.123587	0.603387	0.248834	261.266785
7196.124452	0.279705	0.248834	503.211243
7196.125540	0.289468	0.248834	818.152161
7196.126529	0.286802	0.248834	1101.799072
7196.127425	0.277083	0.248834	1350.064941
7196.128437	0.259259	0.248834	1612.435059
7196.129492	0.246782	0.248834	1872.790283
7196.130377	0.322819	0.248834	2158.484863
7196.131260	0.090828	0.248834	2238.685547
7196.132347	0.091637	0.248834	2338.294922
7196.133300	0.092325	0.248834	2426.281006
7196.134162	0.092194	0.248834	2505.751953
7196.135199	0.091278	0.248834	2600.407227
7196.136227	0.091655	0.248834	2694.628906
7196.137099	0.091699	0.248834	2774.590576
7196.137994	0.091132	0.248834	2856.153320
7196.139088	0.090905	0.248834	2955.602783
7196.140037	0.091505	0.248834	3042.441162
7197.187516	1.163038	0.196059	493.128265
7197.188578	2.241903	0.196059	2874.029297
7197.189595	2.315200	0.196059	5228.587891
7197.190475	1.703379	0.196059	6727.561523
7197.191460	0.850411	0.196059	7565.216797
7197.192515	0.746111	0.196059	8352.363281
7197.193429	0.721197	0.196059	9011.538086
7197.194296	0.465249	0.196059	9414.909180
7197.195380	0.090956	0.196059	9513.504883
7197.196372	0.092406	0.196059	9605.171875
7197.197246	0.092512	0.196059	9686.027344
7197.198227	0.091560	0.196059	9775.847656
7197.199279	0.091421	0.196059	9872.022461
7197.200179	0.091589	0.196059	9954.453125
7197.201041	0.091091	0.196059	10032.973633
7197.202124	0.090886	0.196059	10131.403320
7197.203083	0.091604	0.196059	10219.251953
7197.203964	0.091567	0.196059	10299.922852
7198.160313	0.644275	0.246969	270.595459
7198.161253	0.280052	0.246969	533.844788
7198.162321	0.289526	0.246969	843.058960
7198.163256	0.287058	0.246969	1111.458252
7198.164122	0.277489	0.246969	1351.763672
7198.165202	0.258768	0.246969	1631.233398
7198.166207	0.246742	0.246969	1879.208984
7198.167099	0.320431	0.246969	2165.033447
7198.168089	0.090703	0.246969	2254.829590
7198.169135	0.091857	0.246969	2350.911621
7198.170044	0.092025	0.246969	2434.562500
7198.170904	0.091692	0.246969	2513.417480
7198.172002	0.091329	0.246969	2613.697021
7198.172994	0.091406	0.246969	2704.372070
7198.173875	0.091904	0.246969	2785.339844
7198.174856	0.091088	0.246969	2874.696777
7198.175919	0.091055	0.246969	2971.487793
7198.176790	0.091531	0.246969	3051.211182
7199.224253	0.644550	0.191656	273.933563
7199.225278	0.281492	0.191656	562.462524
7199.226257	0.289556	0.191656	845.937500
7199.227179	0.286707	0.191656	1110.280884
7199.228043	0.277115	0.191656	1349.708618
7199.229147	0.258926	0.191656	1635.562622
7199.230036	0.246976	0.191656	1855.124512
7199.230904	0.356232	0.191656	2164.333496
7199.231967	0.090736	0.191656	2260.785889
7199.232941	0.092882	0.191656	2351.252930
7199.233812	0.092589	0.191656	2431.897949
7199.234678	0.091560	0.191656	2511.188965
7199.235778	0.091274	0.191656	2611.590820
7199.236681	0.092435	0.191656	2695.059814
7199.237550	0.091527	0.191656	2774.596924
7199.238652	0.090883	0.191656	2874.749512
7199.239624	0.091644	0.191656	2963.827637
7199.240500	0.091560	0.191656	3044.034180
7200.200122	0.644597	0.237789	275.887573
7200.200986	0.279221	0.237789	517.134644
7200.202073	0.289237	0.237789	831.535278
7200.203016	0.286959	0.237789	1102.137817
7200.203882	0.277698	0.237789	1342.624023
7200.204952	0.259651	0.237789	1620.450439
7200.205954	0.246892	0.237789	1867.836304
7200.206846	0.297788	0.237789	2133.463379
7200.207828	0.090890	0.237789	2222.717285
7200.208872	0.091512	0.237789	2318.256348
7200.209790	0.092014	0.237789	2402.725342
7200.210652	0.091718	0.237789	2481.785889
7200.211743	0.091198	0.237789	2581.282471
7200.212739	0.091549	0.237789	2672.465332
7200.213612	0.091593	0.237789	2752.426025
7200.214598	0.091066	0.237789	2842.216797
7200.215637	0.090703	0.237789	2936.457275
7200.216521	0.090710	0.237789	3016.645264
7201.259467	0.606885	0.194903	262.781097
7201.260336	0.279152	0.194903	505.363861
7201.261373	0.288794	0.194903	804.843140
7201.262417	0.286106	0.194903	1103.537720
7201.263313	0.276127	0.194903	1350.947266
7201.264268	0.259471	0.194903	1598.742432
7201.265333	0.246497	0.194903	1861.261230
7201.266281	0.303362	0.194903	2148.848145
7201.267143	0.090868	0.194903	2227.176270
7201.268206	0.091425	0.194903	2324.360596
7201.269214	0.091967	0.194903	2417.062988
7201.270100	0.092567	0.194903	2499.077393
7201.271062	0.091165	0.194903	2586.777588
7201.272105	0.091300	0.194903	2682.003418
7201.273011	0.091553	0.194903	2764.950195
7201.273871	0.091399	0.194903	2843.553223
7201.274960	0.090923	0.194903	2942.568115
7201.275958	0.091417	0.194903	3033.802490
7202.238501	0.524799	0.239662	270.271271
7202.239436	0.281572	0.239662	533.541321
7202.240300	0.288842	0.239662	783.100464
7202.241367	0.286128	0.239662	1088.398926
7202.242395	0.274475	0.239662	1370.559326
7202.243279	0.258435	0.239662	1599.015869
7202.244266	0.246808	0.239662	1842.615234
7202.245335	0.243303	0.239662	2102.706299
7202.246247	0.091421	0.239662	2186.082031
7202.247103	0.092029	0.239662	2264.858643
7202.248166	0.091545	0.239662	2362.171387
7202.249172	0.091703	0.239662	2454.424561
7202.250042	0.091739	0.239662	2534.238037
7202.251014	0.091040	0.239662	2622.729004
7202.252067	0.091088	0.239662	2718.644287
7202.252966	0.091450	0.239662	2800.857910
7202.253835	0.091040	0.239662	2879.971680
7202.254919	0.090773	0.239662	2978.369385
7203.292613	0.645125	0.203560	280.629181
7203.293479	0.279126	0.203560	522.352295
7203.294540	0.289175	0.203560	829.166748
7203.295567	0.286615	0.203560	1123.520264
7203.296451	0.276603	0.203560	1368.037109
7203.297417	0.260050	0.203560	1619.245483
7203.298478	0.246848	0.203560	1881.151367
7203.299414	0.310437	0.203560	2171.720459
7203.300273	0.091157	0.203560	2250.024414
7203.301337	0.091516	0.203560	2347.397461
7203.302347	0.091791	0.203560	2440.106201
7203.303223	0.092168	0.203560	2520.845215
7203.304195	0.091392	0.203560	2609.677734
7203.305246	0.091421	0.203560	2705.760986
7203.306158	0.091597	0.203560	2789.297119
7203.307030	0.091670	0.203560	2869.233398
7203.308104	0.090897	0.203560	2966.856934
7203.309089	0.091703	0.203560	3057.184326
7204.280245	0.631311	0.234324	265.781952
7204.281345	0.282971	0.234324	577.050232
7204.282339	0.289867	0.234324	865.177979
7204.283238	0.286465	0.234324	1122.709839
7204.284247	0.274622	0.234324	1399.802979
7204.285311	0.255476	0.234324	1671.629517
7204.286205	0.246555	0.234324	1892.049805
7204.287098	0.314886	0.234324	2173.243408
7204.288198	0.091198	0.234324	2273.560547
7204.289146	0.091868	0.234324	2360.651123
7204.290005	0.092651	0.234324	2440.238770
7204.291058	0.091483	0.234324	2536.570557
7204.292092	0.091820	0.234324	2631.512451
7204.292972	0.092076	0.234324	2712.539795
7204.293900	0.091289	0.234324	2797.256104
7204.294971	0.090894	0.234324	2894.603027
7204.295914	0.091439	0.234324	2980.830078
7204.296775	0.091216	0.234324	3059.366943
7205.324217	0.634640	0.207427	269.087311
7205.325279	0.281785	0.207427	568.342651
7205.326175	0.289200	0.207427	827.466248
7205.327058	0.287168	0.207427	1081.035522
7205.327982	0.277489	0.207427	1337.435303
7205.328992	0.260138	0.207427	1600.174561
7205.329902	0.247229	0.207427	1825.152954
7205.330770	0.369917	0.207427	2146.240967
7205.331780	0.090872	0.207427	2238.021240
7205.332677	0.092175	0.207427	2320.702393
7205.333606	0.092377	0.207427	2406.520264
7205.334471	0.092150	0.207427	2486.229736
7205.335518	0.092007	0.207427	2582.560791
7205.336403	0.092644	0.207427	2664.550781
7205.337276	0.091967	0.207427	2744.837646
7205.338271	0.091132	0.207427	2835.513672
7205.339204	0.091289	0.207427	2920.686279
7205.340119	0.091593	0.207427	3004.493896
7206.322133	0.562632	0.223698	248.683243
7206.323014	0.279803	0.223698	495.190094
7206.323881	0.288926	0.223698	745.688721
7206.325006	0.286948	0.223698	1068.505493
7206.325919	0.277379	0.223698	1321.752686
7206.326798	0.262467	0.223698	1552.461182
7206.327814	0.247819	0.223698	1804.244873
7206.328817	0.326158	0.223698	2131.381836
7206.329689	0.090861	0.223698	2210.612305
7206.330683	0.091549	0.223698	2301.612061
7206.331722	0.091666	0.223698	2396.853271
7206.332605	0.091622	0.223698	2477.755859
7206.333470	0.091871	0.223698	2557.224609
7206.334461	0.091187	0.223698	2647.590332
7206.335454	0.091051	0.223698	2738.003906
7206.336346	0.092142	0.223698	2820.194824
7206.337327	0.090905	0.223698	2909.372070
7206.338386	0.091168	0.223698	3005.919189
7207.356350	0.630428	0.213176	268.562531
7207.357376	0.281272	0.213176	557.147583
7207.358442	0.289146	0.213176	865.376709
7207.359317	0.285747	0.213176	1115.405396
7207.360255	0.274911	0.213176	1373.271851
7207.361337	0.255765	0.213176	1650.010010
7207.362277	0.246321	0.213176	1881.551514
7207.363158	0.316923	0.213176	2160.760254
7207.364205	0.090835	0.213176	2255.864502
7207.365220	0.092131	0.213176	2349.377930
7207.366108	0.092380	0.213176	2431.411621
7207.367056	0.091677	0.213176	2518.321777
7207.368100	0.091161	0.213176	2613.493652
7207.369032	0.091791	0.213176	2699.042725
7207.369893	0.091479	0.213176	2777.806641
7207.370958	0.090868	0.213176	2874.581055
7207.371959	0.091183	0.213176	2965.854980
7207.372849	0.091879	0.213176	3047.626953
7208.364061	0.552144	0.215790	280.488922
7208.365097	0.282803	0.215790	573.472534
7208.365973	0.289160	0.215790	826.776855
7208.366941	0.286088	0.215790	1103.709717
7208.367997	0.273574	0.215790	1392.604004
7208.368921	0.256831	0.215790	1629.915894
7208.369795	0.246727	0.215790	1845.555542
7208.370867	0.268905	0.215790	2133.821777
7208.371877	0.092153	0.215790	2226.896729
7208.372772	0.092461	0.215790	2309.649170
7208.373743	0.091666	0.215790	2398.657227
7208.374812	0.091747	0.215790	2496.734619
7208.375713	0.092300	0.215790	2579.896729
7208.376573	0.091791	0.215790	2658.836914
7208.377659	0.091014	0.215790	2757.678467
7208.378641	0.091619	0.215790	2847.647949
7208.379537	0.091604	0.215790	2929.725098
7208.380554	0.090835	0.215790	3022.104248
7209.388056	0.579998	0.218710	295.798767
7209.388947	0.280986	0.218710	546.157593
7209.389817	0.288984	0.218710	797.573975
7209.390927	0.286106	0.218710	1115.151611
7209.391918	0.275021	0.218710	1387.697144
7209.392786	0.259116	0.218710	1612.609985
7209.393843	0.246749	0.218710	1873.423950
7209.394890	0.274226	0.218710	2160.538574
7209.395774	0.091677	0.218710	2241.581299
7209.396691	0.091926	0.218710	2325.877686
7209.397765	0.091586	0.218710	2424.240723
7209.398704	0.092395	0.218710	2510.999756
7209.399571	0.092003	0.218710	2590.766602
7209.400612	0.091252	0.218710	2685.760498
7209.401635	0.091366	0.218710	2779.227783
7209.402520	0.091615	0.218710	2860.307129
7209.403465	0.091139	0.218710	2946.433350
7209.404513	0.091095	0.218710	3041.900879
7210.404866	0.550855	0.212946	266.062714
7210.405752	0.280525	0.212946	514.607788
7210.406618	0.289021	0.212946	764.899963
7210.407574	0.287472	0.212946	1039.723145
7210.408554	0.277983	0.212946	1312.146851
7210.409474	0.262445	0.212946	1553.596313
7210.410363	0.248057	0.212946	1774.118652
7210.411397	0.360875	0.212946	2147.263672
7210.412293	0.091425	0.212946	2229.180176
7210.413163	0.093113	0.212946	2310.188232
7210.414055	0.092369	0.212946	2392.581787
7210.415070	0.092329	0.212946	2486.295898
7210.415947	0.092542	0.212946	2567.454834
7210.416814	0.092955	0.212946	2648.047119
7210.417827	0.091476	0.212946	2740.712158
7210.418730	0.091630	0.212946	2823.453613
7210.419648	0.091718	0.212946	2907.650391
7210.420526	0.091930	0.212946	2988.364746
7211.420713	0.541088	0.225035	282.447784
7211.421681	0.282693	0.225035	556.094482
7211.422559	0.289453	0.225035	810.234314
7211.423583	0.286487	0.225035	1103.596802
7211.424643	0.274391	0.225035	1394.451172
7211.425526	0.257867	0.225035	1622.148071
7211.426423	0.246881	0.225035	1843.600464
7211.427527	0.284513	0.225035	2157.702637
7211.428469	0.091978	0.225035	2244.345459
7211.429329	0.092483	0.225035	2323.880859
7211.430340	0.091545	0.225035	2416.433350
7211.431372	0.091783	0.225035	2511.153809
7211.432261	0.092179	0.225035	2593.100830
7211.433176	0.091443	0.225035	2676.770996
7211.434254	0.090890	0.225035	2774.750244
7211.435196	0.091578	0.225035	2861.017090
7211.436061	0.091681	0.225035	2940.321045
7211.437120	0.090839	0.225035	3036.519043
7212.445626	0.644648	0.206630	273.975586
7212.446602	0.280155	0.206630	547.406860
7212.447649	0.289175	0.206630	850.172852
7212.448567	0.286417	0.206630	1113.103882
7212.449432	0.276958	0.206630	1352.672607
7212.450513	0.258325	0.206630	1631.922119
7212.451517	0.246643	0.206630	1879.551758
7212.452398	0.318699	0.206630	2160.325439
7212.453399	0.090941	0.206630	2251.357422
7212.454447	0.091681	0.206630	2347.438965
7212.455334	0.092314	0.206630	2429.321777
7212.456192	0.091849	0.206630	2508.128418
7212.457283	0.091168	0.206630	2607.593018
7212.458271	0.091659	0.206630	2698.152100
7212.459139	0.092073	0.206630	2778.071289
7212.460207	0.090952	0.206630	2875.208252
7212.461247	0.091447	0.206630	2970.312744
7212.462139	0.092080	0.206630	3052.448242
7213.455295	0.630509	0.226735	267.335815
7213.456181	0.279954	0.226735	515.374756
7213.457281	0.289607	0.226735	833.942383
7213.458239	0.287065	0.226735	1108.951050
7213.459108	0.277397	0.226735	1350.009521
7213.460154	0.259105	0.226735	1621.033569
7213.461193	0.246779	0.226735	1877.436523
7213.462078	0.301769	0.226735	2144.501953
7213.463019	0.090912	0.226735	2230.050049
7213.464101	0.092076	0.226735	2329.676758
7213.465019	0.092197	0.226735	2414.313965
7213.465885	0.092032	0.226735	2494.014160
7213.466899	0.091146	0.226735	2586.436523
7213.467930	0.091622	0.226735	2680.899170
7213.468815	0.091937	0.226735	2762.263672
7213.469769	0.090908	0.226735	2848.989990
7213.470828	0.091121	0.226735	2945.486816
7213.471756	0.091527	0.226735	3030.424072
7214.485443	0.617681	0.205167	267.455719
7214.486313	0.279012	0.205167	510.196564
7214.487302	0.288695	0.205167	795.715942
7214.488267	0.287260	0.205167	1072.921387
7214.489192	0.277972	0.205167	1330.045898
7214.490058	0.263342	0.205167	1558.100342
7214.491107	0.247584	0.205167	1817.816162
7214.491990	0.358052	0.205167	2133.975830
7214.492859	0.091531	0.205167	2213.516113
7214.493799	0.091897	0.205167	2299.899170
7214.494773	0.092659	0.205167	2390.148682
7214.495688	0.092260	0.205167	2474.566162
7214.496565	0.092018	0.205167	2555.265869
7214.497574	0.091509	0.205167	2647.598145
7214.498482	0.091670	0.205167	2730.834473
7214.499366	0.091912	0.205167	2812.084229
7214.500224	0.091322	0.205167	2890.438477
7214.501278	0.091044	0.205167	2986.398437
7215.489468	0.631252	0.238590	270.176025
7215.490530	0.282001	0.238590	569.660828
7215.491484	0.289186	0.238590	845.544067
7215.492361	0.286681	0.238590	1096.963257
7215.493330	0.276361	0.238590	1364.757080
7215.494373	0.257717	0.238590	1633.556152
7215.495275	0.246669	0.238590	1856.051270
7215.496149	0.349281	0.238590	2161.322754
7215.497234	0.090967	0.238590	2260.021729
7215.498172	0.091952	0.238590	2346.272705
7215.499036	0.091959	0.238590	2425.725586
7215.500089	0.091355	0.238590	2521.922363
7215.501079	0.091494	0.238590	2612.501465
7215.501964	0.092688	0.238590	2694.530273
7215.502930	0.091157	0.238590	2782.588135
7215.503970	0.090959	0.238590	2877.186035
7215.504884	0.091333	0.238590	2960.664307
7215.505744	0.091476	0.238590	3039.333496
7216.521666	0.634882	0.214771	271.094421
7216.522552	0.279972	0.214771	519.149536
7216.523655	0.289629	0.214771	838.610229
7216.524610	0.286978	0.214771	1112.673828
7216.525475	0.277577	0.214771	1352.777832
7216.526529	0.259314	0.214771	1626.094727
7216.527570	0.246738	0.214771	1882.949219
7216.528449	0.304570	0.214771	2150.666504
7216.529396	0.090934	0.214771	2236.780762
7216.530442	0.091681	0.214771	2332.678955
7216.531376	0.092010	0.214771	2418.616699
7216.532240	0.091974	0.214771	2498.082031
7216.533288	0.091219	0.214771	2593.680176
7216.534303	0.091641	0.214771	2686.695312
7216.535195	0.091842	0.214771	2768.618408
7216.536161	0.091018	0.214771	2856.541748
7216.537219	0.091077	0.214771	2952.900879
7216.538144	0.091329	0.214771	3037.380615
7217.525690	0.635493	0.241640	270.084595
7217.526772	0.282565	0.241640	575.819580
7217.527746	0.289358	0.241640	857.654175
7217.528632	0.286465	0.241640	1111.462036
7217.529651	0.274673	0.241640	1391.353760
7217.530701	0.255916	0.241640	1660.065063
7217.531593	0.246753	0.241640	1880.168701
7217.532513	0.285176	0.241640	2142.530273
7217.533572	0.090773	0.241640	2238.658691
7217.534518	0.092626	0.241640	2326.282715
7217.535379	0.091512	0.241640	2405.074951
7217.536421	0.091370	0.241640	2500.282227
7217.537453	0.092457	0.241640	2595.698242
7217.538328	0.092216	0.241640	2676.386963
7217.539253	0.091326	0.241640	2760.863281
7217.540336	0.091351	0.241640	2859.796875
7217.541261	0.092014	0.241640	2944.909912
7217.542128	0.091304	0.241640	3024.070312
7218.559422	0.644491	0.205804	273.908691
7218.560460	0.281239	0.205804	565.834778
7218.561364	0.288995	0.205804	827.086548
7218.562294	0.286860	0.205804	1093.866699
7218.563158	0.277364	0.205804	1333.509644
7218.564218	0.259966	0.205804	1609.073364
7218.565111	0.247130	0.205804	1829.760498
7218.565990	0.353104	0.205804	2140.139160
7218.566983	0.090927	0.205804	2230.429199
7218.567919	0.091622	0.205804	2316.187744
7218.568838	0.092314	0.205804	2401.024658
7218.569702	0.092289	0.205804	2480.762207
7218.570741	0.091487	0.205804	2575.816895
7218.571631	0.091824	0.205804	2657.540039
7218.572502	0.092651	0.205804	2738.239258
7218.573474	0.091421	0.205804	2827.100342
7218.574436	0.091813	0.205804	2915.424316
7218.575310	0.091787	0.205804	2995.646240
7219.563527	0.579485	0.231420	290.321930
7219.564450	0.281466	0.231420	550.115112
7219.565313	0.289307	0.231420	799.786743
7219.566389	0.286538	0.231420	1108.101807
7219.567394	0.275153	0.231420	1384.630127
7219.568288	0.259270	0.231420	1616.417480
7219.569270	0.247145	0.231420	1859.113647
7219.570325	0.299747	0.231420	2175.347168
7219.571230	0.091816	0.231420	2258.440918
7219.572087	0.091963	0.231420	2337.253174
7219.573179	0.091692	0.231420	2437.380615
7219.574168	0.092417	0.231420	2528.781006
7219.575045	0.092183	0.231420	2609.625244
7219.576052	0.091256	0.231420	2701.520020
7219.577096	0.091304	0.231420	2796.841064
7219.577976	0.092102	0.231420	2877.890869
7219.578846	0.091252	0.231420	2957.280518
7219.579951	0.090718	0.231420	3057.523682
7220.596245	0.552568	0.209776	279.599609
7220.597254	0.282704	0.209776	564.847778
7220.598144	0.289398	0.209776	822.412170
7220.599134	0.286154	0.209776	1105.704224
7220.600181	0.274167	0.209776	1392.757568
7220.601091	0.257520	0.209776	1627.100342
7220.601952	0.246852	0.209776	1839.639771
7220.603054	0.259160	0.209776	2125.234375
7220.604045	0.091498	0.209776	2215.908691
7220.604921	0.092131	0.209776	2296.615723
7220.605928	0.091655	0.209776	2388.912598
7220.606984	0.091882	0.209776	2485.940430
7220.607863	0.091853	0.209776	2566.679199
7220.608727	0.091538	0.209776	2645.768066
7220.609830	0.091088	0.209776	2746.237793
7220.610803	0.091721	0.209776	2835.482422
7220.611666	0.091611	0.209776	2914.542969
7220.612719	0.090842	0.209776	3010.199951
7221.598648	0.646044	0.237543	271.984406
7221.599758	0.283008	0.237543	586.123047
7221.600728	0.289698	0.237543	867.130615
7221.601593	0.286736	0.237543	1115.157104
7221.602652	0.274493	0.237543	1405.845581
7221.603688	0.255527	0.237543	1670.571899
7221.604563	0.246709	0.237543	1886.442261
7221.605499	0.255524	0.237543	2125.612305
7221.606569	0.091219	0.237543	2223.217041
7221.607514	0.092699	0.237543	2310.817627
7221.608384	0.091853	0.237543	2390.729736
7221.609423	0.091439	0.237543	2485.735107
7221.610445	0.091454	0.237543	2579.200928
7221.611337	0.091897	0.237543	2661.173096
7221.612292	0.091201	0.237543	2748.270264
7221.613339	0.091201	0.237543	2843.757812
7221.614266	0.091769	0.237543	2928.827393
7221.615130	0.091069	0.237543	3007.511230
7222.633526	0.497765	0.206678	266.801971
7222.634412	0.281851	0.206678	516.521606
7222.635290	0.289369	0.206678	770.587524
7222.636194	0.287596	0.206678	1030.574707
7222.637228	0.277159	0.206678	1317.157593
7222.638131	0.261720	0.206678	1553.490723
7222.639010	0.248057	0.206678	1771.532471
7222.640022	0.328499	0.206678	2103.972900
7222.640946	0.091318	0.206678	2188.351074
7222.641869	0.091707	0.206678	2272.996094
7222.642737	0.092655	0.206678	2353.420654
7222.643766	0.092124	0.206678	2448.216309
7222.644650	0.092607	0.206678	2530.081299
7222.645513	0.091802	0.206678	2609.306152
7222.646476	0.091395	0.206678	2697.319824
7222.647421	0.091622	0.206678	2783.902832
7222.648336	0.092227	0.206678	2868.290039
7222.649222	0.091637	0.206678	2949.480469
7223.636960	0.577885	0.234288	266.404785
7223.637837	0.279943	0.234288	511.914429
7223.638703	0.288900	0.234288	762.101929
7223.639802	0.287095	0.234288	1077.619019
7223.640744	0.277068	0.234288	1338.616943
7223.641625	0.261907	0.234288	1569.356812
7223.642589	0.247870	0.234288	1808.303345
7223.643608	0.327979	0.234288	2142.513428
7223.644485	0.091179	0.234288	2222.477539
7223.645342	0.092087	0.234288	2301.396484
7223.646412	0.091487	0.234288	2399.287354
7223.647339	0.092150	0.234288	2484.709961
7223.648204	0.092146	0.234288	2564.416260
7223.649158	0.091505	0.234288	2651.712158
7223.650193	0.091410	0.234288	2746.321533
7223.651092	0.091809	0.234288	2828.857910
7223.651955	0.091154	0.234288	2907.523437
7223.652994	0.090703	0.234288	3001.763916
7224.669713	0.565928	0.208551	287.491302
7224.670623	0.281067	0.208551	543.262207
7224.671489	0.288973	0.208551	793.513184
7224.672567	0.286326	0.208551	1102.172241
7224.673563	0.275255	0.208551	1376.326294
7224.674450	0.259347	0.208551	1606.367065
7224.675454	0.246991	0.208551	1854.345947
7224.676508	0.246987	0.208551	2114.670654
7224.677411	0.091172	0.208551	2196.998779
7224.678274	0.091692	0.208551	2276.128906
7224.679353	0.091498	0.208551	2374.854980
7224.680349	0.091615	0.208551	2466.103516
7224.681228	0.091622	0.208551	2546.639648
7224.682224	0.091033	0.208551	2637.308350
7224.683287	0.091025	0.208551	2734.068359
7224.684152	0.091520	0.208551	2813.232910
7224.685020	0.091132	0.208551	2892.335205
7224.686117	0.090773	0.208551	2991.912842
7225.672720	0.552312	0.236560	278.365265
7225.673673	0.282015	0.236560	547.125854
7225.674547	0.289351	0.236560	800.018311
7225.675577	0.286622	0.236560	1095.239258
7225.676632	0.274409	0.236560	1384.740967
7225.677528	0.257809	0.236560	1615.737671
7225.678479	0.246768	0.236560	1850.413574
7225.679558	0.262493	0.236560	2133.643066
7225.680494	0.091542	0.236560	2219.326172
7225.681360	0.092344	0.236560	2299.295898
7225.682425	0.091556	0.236560	2396.803467
7225.683426	0.091725	0.236560	2488.620117
7225.684312	0.092095	0.236560	2570.216064
7225.685275	0.091355	0.236560	2658.190918
7225.686316	0.091132	0.236560	2753.058838
7225.687232	0.091022	0.236560	2836.434814
7225.688092	0.091447	0.236560	2915.078857
7225.689178	0.090699	0.236560	3013.578369
7226.706899	0.634991	0.206356	280.666229
7226.707768	0.278936	0.206356	523.061218
7226.708807	0.288728	0.206356	823.049683
7226.709855	0.286029	0.206356	1122.808105
7226.710736	0.275980	0.206356	1365.946655
7226.711667	0.259314	0.206356	1607.367920
7226.712732	0.246595	0.206356	1869.992065
7226.713683	0.312700	0.206356	2167.369873
7226.714548	0.091802	0.206356	2246.778320
7226.715586	0.091604	0.206356	2341.863281
7226.716610	0.091721	0.206356	2435.785889
7226.717492	0.091761	0.206356	2516.719482
7226.718456	0.091549	0.206356	2604.972900
7226.719514	0.091329	0.206356	2701.599365
7226.720440	0.091967	0.206356	2786.760498
7226.721303	0.091527	0.206356	2865.748291
7226.722385	0.090802	0.206356	2963.996094
7226.723377	0.091241	0.206356	3054.507568
7227.710914	0.602838	0.239662	260.426056
7227.711780	0.278983	0.239662	502.025452
7227.712800	0.288794	0.239662	796.595215
7227.713730	0.287095	0.239662	1063.593262
7227.714650	0.277914	0.239662	1319.273926
7227.715515	0.263265	0.239662	1546.998535
7227.716542	0.247603	0.239662	1801.286377
7227.717429	0.331597	0.239662	2095.412598
7227.718301	0.091871	0.239662	2175.524414
7227.719274	0.091512	0.239662	2264.565918
7227.720230	0.092054	0.239662	2352.570068
7227.721146	0.092069	0.239662	2436.905273
7227.722027	0.091835	0.239662	2517.811768
7227.723068	0.091476	0.239662	2613.038086
7227.723969	0.091267	0.239662	2695.269775
7227.724839	0.091897	0.239662	2775.220215
7227.725764	0.091095	0.239662	2859.483154
7227.726776	0.091864	0.239662	2952.449463
7228.742689	0.538868	0.210851	276.978363
7228.743603	0.281382	0.210851	534.161377
7228.744466	0.288995	0.210851	783.564331
7228.745577	0.286091	0.210851	1101.411743
7228.746567	0.274797	0.210851	1373.461182
7228.747449	0.258882	0.210851	1601.794922
7228.748466	0.246713	0.210851	1852.701660
7228.749516	0.237986	0.210851	2102.586914
7228.750401	0.091080	0.210851	2183.193115
7228.751258	0.092065	0.210851	2262.093262
7228.752377	0.091447	0.210851	2364.421875
7228.753329	0.092007	0.210851	2452.012451
7228.754185	0.091886	0.210851	2530.666748
7228.755239	0.091062	0.210851	2626.645996
7228.756288	0.091344	0.210851	2722.465820
7228.757179	0.091652	0.210851	2804.127441
7228.758093	0.091384	0.210851	2887.652588
7228.759168	0.090857	0.210851	2985.323730
7229.747641	0.644971	0.242421	272.177643
7229.748700	0.281887	0.242421	570.696167
7229.749704	0.289277	0.242421	861.130615
7229.750594	0.286285	0.242421	1115.924561
7229.751568	0.275262	0.242421	1384.030151
7229.752635	0.255787	0.242421	1656.955322
7229.753555	0.246632	0.242421	1883.856812
7229.754430	0.307203	0.242421	2152.659668
7229.755530	0.090806	0.242421	2252.545898
7229.756497	0.092010	0.242421	2341.520020
7229.757379	0.092322	0.242421	2422.947754
7229.758394	0.091428	0.242421	2515.747314
7229.759436	0.091406	0.242421	2610.992676
7229.760314	0.091586	0.242421	2691.405029
7229.761175	0.091304	0.242421	2770.017578
7229.762280	0.090890	0.242421	2870.450928
7229.763235	0.091384	0.242421	2957.722900
7229.764096	0.091205	0.242421	3036.250244
7230.777814	0.646033	0.210944	292.652802
7230.778894	0.282294	0.210944	597.530029
7230.779851	0.289296	0.210944	874.385986
7230.780716	0.286469	0.210944	1122.181274
7230.781743	0.274438	0.210944	1404.029541
7230.782797	0.255590	0.210944	1673.421021
7230.783678	0.246343	0.210944	1890.448975
7230.784638	0.241154	0.210944	2121.956299
7230.785698	0.090751	0.210944	2218.152100
7230.786634	0.092395	0.210944	2304.633789
7230.787500	0.092567	0.210944	2384.796875
7230.788559	0.091509	0.210944	2481.704590
7230.789574	0.091472	0.210944	2574.548828
7230.790464	0.091948	0.210944	2656.382812
7230.791425	0.091223	0.210944	2744.048340
7230.792480	0.091080	0.210944	2840.138184
7230.793404	0.091956	0.210944	2925.105225
7230.794266	0.091304	0.210944	3003.809082
7231.788068	0.623097	0.237607	331.487579
7231.789130	0.283539	0.237607	632.605835
7231.790051	0.289398	0.237607	899.141602
7231.790917	0.286022	0.237607	1146.836426
7231.792023	0.273226	0.237607	1449.024780
7231.793002	0.255066	0.237607	1698.734375
7231.793864	0.246599	0.237607	1911.302856
7231.794892	0.257080	0.237607	2175.581055
7231.795943	0.091523	0.237607	2271.772217
7231.796823	0.092380	0.237607	2353.066895
7231.797744	0.092428	0.237607	2438.193115
7231.798605	0.092263	0.237607	2517.631836
7231.799590	0.091329	0.237607	2607.591309
7231.800555	0.091542	0.237607	2695.929199
7231.801445	0.091637	0.237607	2777.486084
7231.802413	0.091340	0.237607	2865.903564
7231.803330	0.091289	0.237607	2949.615723
7231.804250	0.091589	0.237607	3033.877930
7232.810938	0.630421	0.218384	267.298584
7232.811977	0.281821	0.218384	560.110962
7232.812966	0.289479	0.218384	846.405457
7232.813842	0.287058	0.218384	1097.868408
7232.814715	0.277046	0.218384	1339.729492
7232.815827	0.258607	0.218384	1627.300659
7232.816708	0.247013	0.218384	1844.919067
7232.817580	0.324690	0.218384	2128.048584
7232.818620	0.090692	0.218384	2222.368408
7232.819588	0.092402	0.218384	2311.813965
7232.820447	0.092340	0.218384	2391.134033
7232.821313	0.091809	0.218384	2470.640625
7232.822428	0.091450	0.218384	2572.607666
7232.823336	0.091882	0.218384	2656.036865
7232.824201	0.091531	0.218384	2735.210937
7232.825252	0.091066	0.218384	2830.920898
7232.826214	0.090956	0.218384	2918.420410
7232.827138	0.091146	0.218384	3002.639648
7233.827884	0.596023	0.230743	320.660309
7233.828953	0.284315	0.230743	624.593262
7233.829861	0.290076	0.230743	887.981995
7233.830727	0.286659	0.230743	1136.228638
7233.831833	0.273684	0.230743	1438.923218
7233.832802	0.255245	0.230743	1686.255981
7233.833672	0.246859	0.230743	1901.023437
7233.834752	0.249661	0.230743	2170.656982
7233.835795	0.091783	0.230743	2266.387207
7233.836688	0.092428	0.230743	2348.925293
7233.837615	0.091769	0.230743	2433.994873
7233.838669	0.091300	0.230743	2530.225098
7233.839608	0.091589	0.230743	2616.227539
7233.840473	0.091512	0.230743	2695.385742
7233.841533	0.090912	0.230743	2791.752441
7233.842551	0.091139	0.230743	2884.531738
7233.843427	0.091652	0.230743	2964.818604
7233.844387	0.090974	0.230743	3052.153809
7234.845216	0.552708	0.218006	284.091675
7234.846149	0.281810	0.218006	547.020691
7234.847011	0.289252	0.218006	796.355652
7234.848064	0.286685	0.218006	1098.234497
7234.849086	0.275138	0.218006	1379.425537
7234.849966	0.258992	0.218006	1607.338257
7234.850923	0.247086	0.218006	1843.799683
7234.851986	0.293910	0.218006	2156.225830
7234.852913	0.091472	0.218006	2241.020508
7234.853780	0.092457	0.218006	2321.180908
7234.854842	0.091619	0.218006	2418.479980
7234.855846	0.091688	0.218006	2510.534912
7234.856738	0.092285	0.218006	2592.853271
7234.857710	0.091113	0.218006	2681.415283
7234.858760	0.091289	0.218006	2777.268799
7234.859682	0.091699	0.218006	2861.815430
7234.860544	0.091289	0.218006	2940.506592
7234.861634	0.090791	0.218006	3039.468750
7235.869640	0.589808	0.225901	257.156433
7235.870508	0.280115	0.225901	500.296021
7235.871607	0.289493	0.225901	818.449280
7235.872590	0.286750	0.225901	1100.324951
7235.873456	0.277115	0.225901	1340.307007
7235.874513	0.258354	0.225901	1613.387695
7235.875566	0.246584	0.225901	1873.041138
7235.876466	0.305057	0.225901	2147.592773
7235.877384	0.090798	0.225901	2230.945557
7235.878444	0.091615	0.225901	2328.057373
7235.879397	0.092238	0.225901	2415.959717
7235.880261	0.091908	0.225901	2495.368164
7235.881309	0.091362	0.225901	2591.115967
7235.882325	0.091388	0.225901	2683.966064
7235.883217	0.091696	0.225901	2765.758545
7235.884160	0.091095	0.225901	2851.661133
7235.885229	0.090806	0.225901	2948.732422
7235.886152	0.091245	0.225901	3032.951660
7236.877247	0.630780	0.223130	269.973846
7236.878181	0.279727	0.223130	531.238403
7236.879175	0.289061	0.223130	818.565308
7236.880084	0.286831	0.223130	1079.294678
7236.880976	0.277672	0.223130	1326.978149
7236.882006	0.260629	0.223130	1595.425659
7236.882920	0.247200	0.223130	1821.366211
7236.883845	0.360352	0.223130	2154.691406
7236.884703	0.090934	0.223130	2232.712646
7236.885757	0.092040	0.223130	2329.722656
7236.886625	0.092150	0.223130	2409.708496
7236.887501	0.092629	0.223130	2490.851807
7236.888492	0.091436	0.223130	2581.464355
7236.889425	0.091692	0.223130	2667.012939
7236.890306	0.092556	0.223130	2748.554932
7236.891274	0.091084	0.223130	2836.724121
7236.892287	0.091183	0.223130	2929.092285
7236.893177	0.091223	0.223130	3010.280762
7237.910518	0.661351	0.227730	321.416748
7237.911591	0.283414	0.227730	625.520264
7237.912544	0.289834	0.227730	901.732056
7237.913410	0.286608	0.227730	1149.934326
7237.914445	0.274343	0.227730	1433.879639
7237.915480	0.255403	0.227730	1698.221558
7237.916370	0.246709	0.227730	1917.792603
7237.917340	0.232753	0.227730	2143.562744
7237.918386	0.090978	0.227730	2238.725586
7237.919308	0.091794	0.227730	2323.360107
7237.920170	0.091703	0.227730	2402.407959
7237.921219	0.091373	0.227730	2498.258545
7237.922218	0.091296	0.227730	2589.463623
7237.923110	0.091615	0.227730	2671.184082
7237.924067	0.091113	0.227730	2758.379395
7237.925120	0.091025	0.227730	2854.229248
7237.926039	0.091241	0.227730	2938.080078
7237.926898	0.091146	0.227730	3016.374756
7238.909399	0.590552	0.229631	261.614441
7238.910263	0.279866	0.229631	503.418396
7238.911362	0.289219	0.229631	821.269775
7238.912328	0.286593	0.229631	1098.118652
7238.913192	0.276969	0.229631	1337.419922
7238.914259	0.258417	0.229631	1613.150635
7238.915308	0.246573	0.229631	1871.806274
7238.916184	0.309891	0.229631	2143.270996
7238.917097	0.090879	0.229631	2226.243408
7238.918169	0.091604	0.229631	2324.442871
7238.919113	0.091696	0.229631	2411.003418
7238.919977	0.092223	0.229631	2490.684082
7238.921018	0.091117	0.229631	2585.536865
7238.922040	0.091575	0.229631	2679.126221
7238.922924	0.091538	0.229631	2760.045898
7238.923881	0.091187	0.229631	2847.311523
7238.924934	0.090981	0.229631	2943.114990
7238.925870	0.091249	0.229631	3028.523926
7239.952330	0.644864	0.216515	281.805786
7239.953189	0.278855	0.216515	521.342224
7239.954247	0.288717	0.216515	826.804810
7239.955290	0.286205	0.216515	1125.316406
7239.956167	0.276497	0.216515	1367.803955
7239.957134	0.259647	0.216515	1618.882812
7239.958189	0.246475	0.216515	1878.913574
7239.959127	0.307328	0.216515	2167.187012
7239.959994	0.091095	0.216515	2246.166260
7239.961050	0.091641	0.216515	2342.938721
7239.962047	0.092124	0.216515	2434.786377
7239.962938	0.092249	0.216515	2516.979736
7239.963907	0.091351	0.216515	2605.499268
7239.964959	0.091227	0.216515	2701.469971
7239.965868	0.092036	0.216515	2785.130859
7239.966730	0.091168	0.216515	2863.717773
7239.967827	0.090736	0.216515	2963.255371
7239.968815	0.091132	0.216515	3053.293457
7240.941625	0.498105	0.234477	268.478821
7240.942533	0.281283	0.234477	523.883728
7240.943407	0.288735	0.234477	776.238403
7240.944287	0.286739	0.234477	1028.569214
7240.945347	0.276372	0.234477	1321.523682
7240.946242	0.260793	0.234477	1554.933838
7240.947120	0.247478	0.234477	1772.219482
7240.948150	0.293646	0.234477	2074.675049
7240.949068	0.091428	0.234477	2158.606201
7240.949996	0.092369	0.234477	2244.324951
7240.950852	0.091641	0.234477	2322.769287
7240.951878	0.091732	0.234477	2416.886475
7240.952767	0.091879	0.234477	2498.566650
7240.953638	0.092454	0.234477	2579.093750
7240.954613	0.091036	0.234477	2667.854248
7240.955563	0.092054	0.234477	2755.305908
7240.956480	0.091498	0.234477	2839.209473
7240.957346	0.090974	0.234477	2917.993164
7241.994270	0.552770	0.208519	281.912598
7241.995258	0.282872	0.208519	561.390442
7241.996157	0.289563	0.208519	821.707581
7241.997168	0.286359	0.208519	1111.216187
7241.998222	0.274135	0.208519	1400.153931
7241.999105	0.257446	0.208519	1627.479004
7241.999994	0.246910	0.208519	1846.982300
7242.001099	0.229189	0.208519	2100.236572
7242.002046	0.091176	0.208519	2186.579834
7242.002908	0.092128	0.208519	2265.993896
7242.003943	0.091447	0.208519	2360.641113
7242.004974	0.091901	0.208519	2455.390625
7242.005845	0.092344	0.208519	2535.822021
7242.006754	0.091377	0.208519	2618.883789
7242.007833	0.090875	0.208519	2716.938232
7242.008781	0.091912	0.208519	2804.070557
7242.009646	0.091465	0.208519	2883.187744
7242.010675	0.090831	0.208519	2976.653076
7242.974223	0.566290	0.250639	285.410309
7242.975188	0.281913	0.250639	557.456177
7242.976075	0.288831	0.250639	813.648865
7242.977085	0.286018	0.250639	1102.527100
7242.978155	0.273885	0.250639	1395.584595
7242.979052	0.257106	0.250639	1626.208374
7242.979964	0.246665	0.250639	1851.166870
7242.981054	0.267385	0.250639	2142.616699
7242.982003	0.091597	0.250639	2229.541992
7242.982877	0.092018	0.250639	2309.965576
7242.983935	0.091483	0.250639	2406.754639
7242.984963	0.091729	0.250639	2501.051514
7242.985854	0.092010	0.250639	2583.032959
7242.986807	0.091216	0.250639	2669.961670
7242.987851	0.091003	0.250639	2764.969238
7242.988770	0.091121	0.250639	2848.708984
7242.989627	0.091436	0.250639	2927.069336
7242.990700	0.090692	0.250639	3024.382080
7244.032951	0.645428	0.209099	271.725403
7244.034052	0.282444	0.209099	582.696045
7244.035047	0.289387	0.209099	870.636353
7244.035947	0.286187	0.209099	1128.204224
7244.036950	0.274497	0.209099	1403.524780
7244.038012	0.255385	0.209099	1674.743164
7244.038904	0.246324	0.209099	1894.464600
7244.039791	0.281873	0.209099	2144.485596
7244.040892	0.090970	0.209099	2244.644043
7244.041843	0.092252	0.209099	2332.375977
7244.042703	0.092040	0.209099	2411.530273
7244.043750	0.091392	0.209099	2507.217285
7244.044776	0.091414	0.209099	2601.007568
7244.045657	0.092157	0.209099	2682.197754
7244.046591	0.091340	0.209099	2767.509521
7244.047658	0.090923	0.209099	2864.524170
7244.048598	0.091304	0.209099	2950.349609
7244.049458	0.091490	0.209099	3029.031494
7245.009342	0.644656	0.254873	275.268005
7245.010205	0.279174	0.254873	516.194824
7245.011278	0.289211	0.254873	826.518677
7245.012163	0.287413	0.254873	1080.879517
7245.013040	0.278789	0.254873	1325.377441
7245.013937	0.263441	0.254873	1561.684082
7245.014980	0.247771	0.254873	1820.109253
7245.015856	0.346465	0.254873	2123.612549
7245.016735	0.091362	0.254873	2203.919922
7245.017732	0.091443	0.254873	2295.088379
7245.018658	0.091831	0.254873	2380.124023
7245.019579	0.092000	0.254873	2464.855469
7245.020440	0.091249	0.254873	2543.420654
7245.021483	0.091527	0.254873	2638.883301
7245.022374	0.091392	0.254873	2720.313232
7245.023249	0.092051	0.254873	2800.857666
7245.024244	0.090908	0.254873	2891.311279
7245.025190	0.091161	0.254873	2977.549561
7246.072271	0.621749	0.203560	271.704437
7246.073255	0.281056	0.203560	548.263428
7246.074321	0.289596	0.203560	856.972656
7246.075227	0.286721	0.203560	1116.742065
7246.076092	0.276636	0.203560	1356.031982
7246.077188	0.257860	0.203560	1638.646606
7246.078192	0.246548	0.203560	1886.180664
7246.079076	0.330443	0.203560	2178.292480
7246.080075	0.090948	0.203560	2269.149902
7246.081131	0.091912	0.203560	2366.208496
7246.082012	0.092303	0.203560	2447.527832
7246.082872	0.092062	0.203560	2526.700928
7246.083967	0.091157	0.203560	2626.518066
7246.084936	0.092219	0.203560	2715.878418
7246.085802	0.091853	0.203560	2795.423096
7246.086834	0.090919	0.203560	2889.251709
7246.087876	0.091208	0.203560	2984.291016
7246.088763	0.092014	0.203560	3065.907471
7247.044109	0.579672	0.260202	293.313843
7247.045033	0.281704	0.260202	553.608398
7247.045899	0.289318	0.260202	804.157471
7247.046978	0.286454	0.260202	1113.241211
7247.047979	0.274911	0.260202	1388.427002
7247.048872	0.258669	0.260202	1619.418823
7247.049851	0.247075	0.260202	1861.305420
7247.050902	0.267594	0.260202	2142.546631
7247.051803	0.091322	0.260202	2224.827881
7247.052660	0.091831	0.260202	2303.527100
7247.053742	0.091633	0.260202	2402.674316
7247.054741	0.091787	0.260202	2494.369629
7247.055622	0.092010	0.260202	2575.430908
7247.056622	0.091377	0.260202	2666.807861
7247.057672	0.091165	0.260202	2762.530762
7247.058552	0.092003	0.260202	2843.493652
7247.059419	0.091047	0.260202	2922.431641
7247.060522	0.090905	0.260202	3022.699463
7248.109573	0.647747	0.195922	324.521057
7248.110630	0.283209	0.195922	623.873230
7248.111563	0.289299	0.195922	893.789551
7248.112434	0.286249	0.195922	1143.112183
7248.113501	0.273812	0.195922	1435.269897
7248.114519	0.255278	0.195922	1695.143188
7248.115410	0.246548	0.195922	1914.817261
7248.116381	0.243234	0.195922	2150.997070
7248.117438	0.091124	0.195922	2247.315430
7248.118357	0.092238	0.195922	2332.081787
7248.119222	0.091798	0.195922	2411.487061
7248.120317	0.091267	0.195922	2511.424561
7248.121306	0.091461	0.195922	2601.879639
7248.122201	0.091501	0.195922	2683.773437
7248.123195	0.091091	0.195922	2774.318115
7248.124235	0.091216	0.195922	2869.182617
7248.125134	0.091274	0.195922	2951.238281
7248.125991	0.091245	0.195922	3029.435303
7249.081296	0.631322	0.251807	280.306946
7249.082162	0.279243	0.251807	522.131470
7249.083289	0.289109	0.251807	847.957214
7249.084330	0.285546	0.251807	1145.210205
7249.085221	0.275028	0.251807	1390.260254
7249.086198	0.257900	0.251807	1642.228882
7249.087250	0.246537	0.251807	1901.585693
7249.088179	0.253411	0.251807	2137.004150
7249.089038	0.090831	0.251807	2215.028320
7249.090083	0.091505	0.251807	2310.651123
7249.091099	0.091472	0.251807	2403.586914
7249.091988	0.092058	0.251807	2485.426514
7249.092966	0.091128	0.251807	2574.549561
7249.094010	0.091395	0.251807	2669.966309
7249.094916	0.091245	0.251807	2752.634277
7249.095787	0.091018	0.251807	2831.911133
7249.096862	0.090758	0.251807	2929.476074
7249.097859	0.090707	0.251807	3019.910645
7250.146834	0.566316	0.195080	287.122192
7250.147795	0.282180	0.195080	558.297363
7250.148672	0.289160	0.195080	811.890808
7250.149701	0.286458	0.195080	1106.655518
7250.150751	0.274622	0.195080	1395.008179
7250.151648	0.258094	0.195080	1626.518921
7250.152537	0.247006	0.195080	1846.106934
7250.153641	0.270886	0.195080	2145.165283
7250.154579	0.091256	0.195080	2230.763428
7250.155444	0.092161	0.195080	2310.482422
7250.156500	0.091619	0.195080	2407.231689
7250.157516	0.092080	0.195080	2500.785156
7250.158403	0.091901	0.195080	2582.301025
7250.159338	0.091549	0.195080	2667.899414
7250.160404	0.091033	0.195080	2764.940186
7250.161331	0.092010	0.195080	2850.233887
7250.162190	0.091487	0.195080	2928.821045
7250.163235	0.090824	0.195080	3023.732178
7251.117534	0.591958	0.260891	270.524811
7251.118409	0.280049	0.260891	515.567505
7251.119385	0.289131	0.260891	797.759216
7251.120441	0.286769	0.260891	1100.587158
7251.121368	0.276595	0.260891	1356.991211
7251.122236	0.260834	0.260891	1583.394897
7251.123311	0.247024	0.260891	1848.945557
7251.124310	0.302816	0.260891	2151.458984
7251.125195	0.091183	0.260891	2232.155762
7251.126181	0.091472	0.260891	2322.347412
7251.127234	0.091882	0.260891	2419.099609
7251.128136	0.092194	0.260891	2502.258301
7251.128998	0.091469	0.260891	2581.104248
7251.130093	0.091051	0.260891	2680.805176
7251.131044	0.091641	0.260891	2767.955322
7251.131918	0.091707	0.260891	2848.106934
7251.132933	0.091003	0.260891	2940.475342
7251.133984	0.090930	0.260891	3036.042969
7252.181964	1.163459	0.198553	511.922150
7252.182839	2.175681	0.198553	2415.643066
7252.183773	2.372637	0.198553	4631.685547
7252.184708	1.960576	0.198553	6464.824219
7252.185635	0.939573	0.198553	7335.808105
7252.186515	0.762198	0.198553	8006.542969
7252.187553	0.731400	0.198553	8765.736328
7252.188454	0.656902	0.198553	9357.604492
7252.189339	0.090465	0.198553	9437.666016
7252.190341	0.091469	0.198553	9529.317383
7252.191271	0.092098	0.198553	9614.968750
7252.192194	0.092498	0.198553	9700.343750
7252.193059	0.091941	0.198553	9779.873047
7252.194092	0.091923	0.198553	9874.829102
7252.194974	0.092120	0.198553	9956.079102
7252.195842	0.091377	0.198553	10035.394531
7252.196796	0.091564	0.198553	10122.746094
7252.197745	0.091729	0.198553	10209.796875
7253.154751	0.644363	0.263324	275.142914
7253.155613	0.278804	0.263324	515.471680
7253.156683	0.288977	0.263324	824.677124
7253.157634	0.286842	0.263324	1097.463867
7253.158508	0.277855	0.263324	1340.309326
7253.159414	0.262024	0.263324	1577.703003
7253.160497	0.247101	0.263324	1845.313232
7253.161384	0.338917	0.263324	2145.932861
7253.162239	0.091183	0.263324	2223.894287
7253.163277	0.091447	0.263324	2318.815674
7253.164246	0.092161	0.263324	2408.119385
7253.165124	0.092347	0.263324	2489.200439
7253.166012	0.091381	0.263324	2570.346436
7253.167097	0.091450	0.263324	2669.569824
7253.167993	0.091831	0.263324	2751.850342
7253.168860	0.091626	0.263324	2831.290039
7253.169897	0.090853	0.263324	2925.504883
7253.170854	0.091523	0.263324	3013.092773
7254.219316	0.501797	0.205409	274.482910
7254.220373	0.283586	0.205409	574.233765
7254.221262	0.289343	0.205409	831.459961
7254.222181	0.285901	0.205409	1094.202881
7254.223264	0.273245	0.205409	1390.126831
7254.224214	0.255546	0.205409	1632.895142
7254.225083	0.246541	0.205409	1847.138916
7254.226135	0.291588	0.205409	2153.889648
7254.227150	0.091311	0.205409	2246.570312
7254.228038	0.092534	0.205409	2328.740723
7254.228982	0.091952	0.205409	2415.543213
7254.230047	0.091622	0.205409	2513.121094
7254.230973	0.092139	0.205409	2598.441406
7254.231834	0.092362	0.205409	2677.965088
7254.232902	0.091069	0.205409	2775.227051
7254.233899	0.091238	0.205409	2866.191162
7254.234777	0.092534	0.205409	2947.436279
7254.235758	0.091205	0.205409	3036.908203
7255.192018	1.234508	0.257572	551.825134
7255.193116	2.273368	0.257572	3047.983154
7255.194079	2.305430	0.257572	5268.112305
7255.194940	1.699145	0.257572	6731.076660
7255.195987	0.832983	0.257572	7603.210449
7255.197012	0.748085	0.257572	8369.997070
7255.197897	0.724189	0.257572	9010.904297
7255.198834	0.392867	0.257572	9379.021484
7255.199922	0.091062	0.257572	9478.096680
7255.200840	0.092271	0.257572	9562.800781
7255.201712	0.092150	0.257572	9643.155273
7255.202753	0.091406	0.257572	9738.309570
7255.203764	0.091150	0.257572	9830.461914
7255.204654	0.092314	0.257572	9912.622070
7255.205618	0.091176	0.257572	10000.515625
7255.206671	0.091055	0.257572	10096.396484
7255.207596	0.091505	0.257572	10181.039062
7255.208458	0.090824	0.257572	10259.329102
7256.255510	0.648450	0.206444	335.896942
7256.256577	0.283154	0.206444	638.022583
7256.257503	0.289094	0.206444	905.723877
7256.258373	0.285930	0.206444	1154.483154
7256.259459	0.273223	0.206444	1451.203003
7256.260457	0.254733	0.206444	1705.426270
7256.261351	0.246376	0.206444	1925.686157
7256.262356	0.242780	0.206444	2169.679687
7256.263380	0.091252	0.206444	2263.122070
7256.264277	0.091893	0.206444	2345.550293
7256.265137	0.091718	0.206444	2424.427246
7256.266238	0.091443	0.206444	2525.105957
7256.267196	0.092205	0.206444	2613.437988
7256.268065	0.091978	0.206444	2693.366455
7256.269065	0.091179	0.206444	2784.545654
7256.270135	0.091084	0.206444	2882.005615
7256.271009	0.091472	0.206444	2961.952393
7256.271872	0.091296	0.206444	3040.741211
7257.228211	0.644667	0.262655	270.115387
7257.229273	0.282195	0.262655	569.806274
7257.230282	0.289435	0.262655	861.846008
7257.231181	0.286337	0.262655	1119.262695
7257.232169	0.275013	0.262655	1390.975952
7257.233229	0.255590	0.262655	1661.900879
7257.234146	0.246592	0.262655	1888.025513
7257.235017	0.312312	0.262655	2160.049316
7257.236120	0.091066	0.262655	2260.494873
7257.237088	0.092102	0.262655	2349.649658
7257.237968	0.092531	0.262655	2431.076416
7257.238991	0.091348	0.262655	2524.525146
7257.240032	0.091509	0.262655	2619.785889
7257.240907	0.091970	0.262655	2700.259766
7257.241771	0.091366	0.262655	2779.199951
7257.242857	0.090806	0.262655	2877.814941
7257.243825	0.091630	0.262655	2966.512451
7257.244685	0.092007	0.262655	3045.638428
7258.291643	0.630623	0.211278	267.383972
7258.292514	0.279181	0.211278	510.550537
7258.293481	0.288849	0.211278	789.867432
7258.294381	0.287772	0.211278	1048.862427
7258.295263	0.279554	0.211278	1295.429443
7258.296249	0.263705	0.211278	1555.442383
7258.297213	0.248112	0.211278	1794.621948
7258.298145	0.385353	0.211278	2153.770752
7258.299010	0.091344	0.211278	2232.783203
7258.300049	0.092241	0.211278	2328.621826
7258.300929	0.092673	0.211278	2410.174316
7258.301794	0.092560	0.211278	2490.238525
7258.302737	0.091611	0.211278	2576.627930
7258.303718	0.091945	0.211278	2666.825684
7258.304631	0.091930	0.211278	2750.757812
7258.305504	0.091882	0.211278	2830.971191
7258.306528	0.091176	0.211278	2924.334961
7258.307427	0.091655	0.211278	3006.733154
7259.266578	0.566052	0.257072	283.026123
7259.267463	0.280477	0.257072	531.248535
7259.268335	0.288823	0.257072	783.102417
7259.269266	0.287369	0.257072	1050.643311
7259.270268	0.277852	0.257072	1329.050537
7259.271177	0.261801	0.257072	1567.027222
7259.272076	0.247899	0.257072	1789.888550
7259.273084	0.340225	0.257072	2132.834961
7259.274001	0.091564	0.257072	2216.798828
7259.274925	0.092527	0.257072	2302.293701
7259.275789	0.091871	0.257072	2381.670410
7259.276822	0.092234	0.257072	2476.947998
7259.277710	0.091893	0.257072	2558.549316
7259.278585	0.091857	0.257072	2638.923828
7259.279604	0.091260	0.257072	2731.917480
7259.280530	0.091604	0.257072	2816.742676
7259.281453	0.091739	0.257072	2901.418213
7259.282313	0.091073	0.257072	2979.740967
7260.329512	0.566415	0.206468	293.402893
7260.330430	0.281594	0.206468	551.906372
7260.331302	0.289233	0.206468	804.117920
7260.332280	0.286930	0.206468	1084.735352
7260.333289	0.275922	0.206468	1363.140259
7260.334183	0.260233	0.206468	1595.788696
7260.335055	0.247207	0.206468	1811.353271
7260.336131	0.304570	0.206468	2139.070801
7260.337069	0.090853	0.206468	2224.291260
7260.337947	0.092476	0.206468	2305.484863
7260.338921	0.091758	0.206468	2394.856934
7260.339938	0.091761	0.206468	2488.178223
7260.340825	0.092098	0.206468	2569.869385
7260.341688	0.091556	0.206468	2648.882568
7260.342762	0.091516	0.206468	2747.170898
7260.343690	0.091743	0.206468	2832.308594
7260.344556	0.091666	0.206468	2911.691650
7260.345530	0.091252	0.206468	3000.571533
7261.304762	0.644473	0.253221	271.967468
7261.305795	0.281488	0.253221	562.744629
7261.306762	0.289515	0.253221	842.706055
7261.307630	0.287150	0.253221	1091.951904
7261.308513	0.277350	0.253221	1336.851807
7261.309625	0.258853	0.253221	1624.695801
7261.310522	0.246914	0.253221	1846.177734
7261.311396	0.331447	0.253221	2135.862061
7261.312440	0.090648	0.253221	2230.498779
7261.313412	0.092106	0.253221	2320.025635
7261.314284	0.092351	0.253221	2400.555664
7261.315146	0.091615	0.253221	2479.527832
7261.316254	0.091494	0.253221	2580.903320
7261.317142	0.092062	0.253221	2662.654053
7261.318002	0.091696	0.253221	2741.512207
7261.319089	0.090897	0.253221	2840.317383
7261.320054	0.091425	0.253221	2928.541992
7261.320932	0.091549	0.253221	3008.922119
7262.364104	0.632124	0.212297	274.973938
7262.365120	0.281345	0.212297	560.820679
7262.366180	0.289468	0.212297	867.656494
7262.367066	0.286263	0.212297	1121.285889
7262.367938	0.276072	0.212297	1362.020508
7262.369044	0.257003	0.212297	1646.265991
7262.370006	0.246555	0.212297	1883.452026
7262.370874	0.307489	0.212297	2150.352539
7262.371907	0.090747	0.212297	2244.094238
7262.372946	0.091707	0.212297	2339.377441
7262.373817	0.092157	0.212297	2419.646240
7262.374742	0.091560	0.212297	2504.339355
7262.375818	0.091245	0.212297	2602.519043
7262.376756	0.091622	0.212297	2688.460693
7262.377626	0.091066	0.212297	2767.687744
7262.378671	0.090879	0.212297	2862.656250
7262.379691	0.090824	0.212297	2955.296631
7262.380585	0.091329	0.212297	3036.945068
7263.344053	0.643993	0.249185	269.833038
7263.345076	0.281023	0.249185	557.319458
7263.346132	0.288981	0.249185	862.483093
7263.347027	0.285883	0.249185	1118.348022
7263.347946	0.275178	0.249185	1371.236816
7263.349038	0.255806	0.249185	1650.576660
7263.349992	0.246244	0.249185	1885.493286
7263.350867	0.321570	0.249185	2166.866943
7263.351930	0.091003	0.249185	2263.603516
7263.352946	0.091831	0.249185	2356.903809
7263.353835	0.092677	0.249185	2439.293701
7263.354787	0.091747	0.249185	2526.636719
7263.355839	0.091219	0.249185	2622.599609
7263.356753	0.091736	0.249185	2706.446289
7263.357611	0.091809	0.249185	2785.218506
7263.358670	0.091003	0.249185	2881.591064
7263.359674	0.091146	0.249185	2973.101807
7263.360553	0.091403	0.249185	3053.444580
7264.397242	0.630337	0.215903	268.523499
7264.398244	0.280573	0.215903	549.657104
7264.399307	0.288988	0.215903	856.851379
7264.400202	0.285996	0.215903	1112.817871
7264.401070	0.275651	0.215903	1352.082642
7264.402199	0.256439	0.215903	1641.602539
7264.403165	0.246310	0.215903	1879.537842
7264.404043	0.324858	0.215903	2164.763428
7264.405087	0.090912	0.215903	2259.675293
7264.406118	0.091948	0.215903	2354.473877
7264.407007	0.092465	0.215903	2436.674805
7264.407954	0.091674	0.215903	2523.489746
7264.409008	0.091260	0.215903	2619.677490
7264.409944	0.091787	0.215903	2705.590332
7264.410807	0.091696	0.215903	2784.723633
7264.411857	0.090919	0.215903	2880.188721
7264.412878	0.091051	0.215903	2973.151855
7264.413755	0.091666	0.215903	3053.543213
7265.384443	0.633171	0.250482	310.253967
7265.385515	0.283085	0.250482	613.720825
7265.386460	0.289468	0.250482	887.267822
7265.387328	0.286205	0.250482	1135.693604
7265.388392	0.273750	0.250482	1426.963623
7265.389409	0.254960	0.250482	1686.257568
7265.390294	0.246537	0.250482	1904.442627
7265.391269	0.238447	0.250482	2136.928711
7265.392313	0.090923	0.250482	2231.852051
7265.393232	0.092142	0.250482	2316.530762
7265.394092	0.091923	0.250482	2395.584229
7265.395140	0.091337	0.250482	2491.305176
7265.396153	0.091296	0.250482	2583.788330
7265.397041	0.092000	0.250482	2665.483887
7265.398004	0.091055	0.250482	2753.169434
7265.399052	0.090992	0.250482	2848.529541
7265.399967	0.091055	0.250482	2931.844482
7265.400829	0.091300	0.250482	3010.545166
7266.429890	0.603365	0.221297	260.653900
7266.430755	0.279514	0.221297	502.433655
7266.431849	0.289219	0.221297	818.838989
7266.432840	0.286219	0.221297	1102.482422
7266.433737	0.276390	0.221297	1350.404541
7266.434741	0.258549	0.221297	1609.987305
7266.435795	0.246702	0.221297	1870.010864
7266.436691	0.258395	0.221297	2101.532715
7266.437579	0.090436	0.221297	2181.839600
7266.438679	0.091454	0.221297	2282.438965
7266.439641	0.091739	0.221297	2370.692383
7266.440502	0.091417	0.221297	2449.402588
7266.441547	0.091132	0.221297	2544.635010
7266.442580	0.091212	0.221297	2638.857178
7266.443459	0.091161	0.221297	2718.987549
7266.444403	0.090864	0.221297	2804.763428
7266.445460	0.090725	0.221297	2900.659912
7266.446388	0.091007	0.221297	2985.114502
7267.424693	0.643645	0.246256	269.043640
7267.425765	0.281631	0.246256	570.951904
7267.426644	0.288948	0.246256	824.936951
7267.427523	0.286820	0.246256	1077.051758
7267.428459	0.277247	0.246256	1336.555176
7267.429447	0.260332	0.246256	1593.763184
7267.430365	0.247214	0.246256	1820.705933
7267.431244	0.344714	0.246256	2123.709961
7267.432353	0.091077	0.246256	2224.713867
7267.433244	0.092109	0.246256	2306.783203
7267.434113	0.092629	0.246256	2387.278076
7267.434969	0.091776	0.246256	2465.838379
7267.436028	0.091527	0.246256	2562.765625
7267.436914	0.091996	0.246256	2644.273926
7267.437777	0.092058	0.246256	2723.719971
7267.438761	0.091011	0.246256	2813.274658
7267.439682	0.091183	0.246256	2897.254150
7267.440587	0.091421	0.246256	2979.989990
7268.461625	0.541908	0.231146	299.675110
7268.462637	0.283488	0.231146	586.564514
7268.463539	0.289420	0.231146	847.621460
7268.464405	0.286392	0.231146	1095.636597
7268.465517	0.273798	0.231146	1400.099487
7268.466435	0.256575	0.231146	1635.635010
7268.467303	0.246716	0.231146	1849.784790
7268.468369	0.260277	0.231146	2127.240234
7268.469336	0.091721	0.231146	2215.934570
7268.470214	0.092329	0.231146	2296.999512
7268.471077	0.091780	0.231146	2376.205566
7268.472190	0.091249	0.231146	2477.765381
7268.473080	0.091754	0.231146	2559.426514
7268.473948	0.091875	0.231146	2639.174072
7268.474965	0.090923	0.231146	2731.642578
7268.475960	0.091454	0.231146	2822.639160
7268.476848	0.091512	0.231146	2903.902344
7268.477703	0.091011	0.231146	2981.716553
7269.468242	0.487767	0.226521	280.466217
7269.469221	0.283469	0.226521	557.982605
7269.470108	0.289501	0.226521	814.769775
7269.470976	0.286490	0.226521	1063.443481
7269.472101	0.274127	0.226521	1371.836670
7269.473009	0.257186	0.226521	1605.361816
7269.473897	0.246841	0.226521	1824.556396
7269.475023	0.250573	0.226521	2106.700928
7269.475982	0.091000	0.226521	2193.969727
7269.476847	0.091952	0.226521	2273.508057
7269.477881	0.091476	0.226521	2368.093994
7269.478919	0.091930	0.226521	2463.517334
7269.479811	0.091663	0.226521	2545.280273
7269.480736	0.091055	0.226521	2629.505859
7269.481789	0.090835	0.226521	2725.155029
7269.482724	0.091348	0.226521	2810.565186
7269.483585	0.091384	0.226521	2889.247070
7269.484627	0.090685	0.226521	2983.740723
7270.494278	0.554861	0.234574	312.941498
7270.495352	0.283682	0.234574	617.615601
7270.496238	0.289186	0.234574	873.834229
7270.497105	0.285531	0.234574	1121.389648
7270.498202	0.272845	0.234574	1420.701172
7270.499181	0.254934	0.234574	1670.281616
7270.500054	0.246387	0.234574	1885.377197
7270.501073	0.269352	0.234574	2159.846680
7270.502112	0.091469	0.234574	2254.882568
7270.502998	0.092776	0.234574	2337.082031
7270.503921	0.091967	0.234574	2421.967285
7270.505000	0.091421	0.234574	2520.610352
7270.505943	0.091718	0.234574	2607.100098
7270.506810	0.091176	0.234574	2686.149414
7270.507865	0.091003	0.234574	2782.157959
7270.508892	0.091106	0.234574	2875.723877
7270.509773	0.091520	0.234574	2956.352783
7270.510727	0.090802	0.234574	3042.977783
7271.507995	0.552473	0.235895	281.208832
7271.508997	0.282579	0.235895	564.353333
7271.509881	0.289307	0.235895	820.100403
7271.510870	0.286289	0.235895	1103.240234
7271.511926	0.274006	0.235895	1392.590942
7271.512819	0.257314	0.235895	1622.372803
7271.513702	0.246735	0.235895	1840.239502
7271.514820	0.264316	0.235895	2135.745117
7271.515765	0.091450	0.235895	2222.165527
7271.516635	0.092384	0.235895	2302.539551
7271.517666	0.091622	0.235895	2397.002197
7271.518701	0.091641	0.235895	2491.850342
7271.519597	0.091685	0.235895	2573.999756
7271.520526	0.091219	0.235895	2658.742676
7271.521583	0.090857	0.235895	2754.778564
7271.522523	0.091256	0.235895	2840.559326
7271.523386	0.091326	0.235895	2919.373291
7271.524438	0.090729	0.235895	3014.819824
7272.526780	0.617150	0.239533	262.288605
7272.527877	0.281960	0.239533	571.599243
7272.528878	0.289087	0.239533	860.975220
7272.529756	0.286014	0.239533	1112.095825
7272.530748	0.274299	0.239533	1384.200684
7272.531808	0.255150	0.239533	1654.659790
7272.532712	0.246262	0.239533	1877.280762
7272.533588	0.299117	0.239533	2139.307617
7272.534697	0.090883	0.239533	2240.096436
7272.535656	0.092292	0.239533	2328.604980
7272.536523	0.092073	0.239533	2408.432129
7272.537546	0.091304	0.239533	2501.835937
7272.538579	0.091802	0.239533	2596.667236
7272.539467	0.091974	0.239533	2678.340088
7272.540378	0.091227	0.239533	2761.447754
7272.541459	0.090831	0.239533	2859.636475
7272.542404	0.091219	0.239533	2945.838867
7272.543266	0.091388	0.239533	3024.615234
7273.548797	0.495399	0.221752	242.250198
7273.549677	0.280642	0.221752	489.215210
7273.550686	0.289453	0.221752	781.273437
7273.551751	0.286450	0.221752	1086.342896
7273.552621	0.276050	0.221752	1326.506226
7273.553519	0.259409	0.221752	1559.455688
7273.554622	0.246775	0.221752	1831.648437
7273.555578	0.281243	0.221752	2100.516357
7273.556448	0.090981	0.221752	2179.670166
7273.557475	0.091523	0.221752	2273.664795
7273.558517	0.091622	0.221752	2369.135254
7273.559411	0.092032	0.221752	2451.412354
7273.560345	0.091219	0.221752	2536.611328
7273.561408	0.091088	0.221752	2633.437500
7273.562356	0.091392	0.221752	2720.076660
7273.563219	0.091479	0.221752	2799.023437
7273.564273	0.090795	0.221752	2894.720947
7273.565278	0.090956	0.221752	2986.131592
7274.560443	0.644172	0.246288	271.196564
7274.561486	0.281188	0.246288	564.475342
7274.562388	0.288875	0.246288	825.040161
7274.563314	0.286545	0.246288	1090.381226
7274.564193	0.276991	0.246288	1333.856323
7274.565236	0.259578	0.246288	1604.595825
7274.566135	0.247086	0.246288	1826.726318
7274.567015	0.343923	0.246288	2129.378906
7274.568003	0.090919	0.246288	2219.207031
7274.568942	0.092021	0.246288	2305.615234
7274.569859	0.092135	0.246288	2390.103027
7274.570721	0.091882	0.246288	2469.305664
7274.571751	0.091670	0.246288	2563.725586
7274.572629	0.091908	0.246288	2644.420654
7274.573493	0.091765	0.246288	2723.705811
7274.574438	0.090989	0.246288	2809.690186
7274.575413	0.091630	0.246288	2899.029053
7274.576331	0.091458	0.246288	2982.987061
7275.589059	0.606453	0.213409	262.593994
7275.589922	0.279642	0.213409	503.925354
7275.591041	0.289365	0.213409	827.725037
7275.592015	0.286659	0.213409	1106.930786
7275.592891	0.276859	0.213409	1349.459351
7275.593944	0.258340	0.213409	1621.491211
7275.594978	0.246577	0.213409	1876.452026
7275.595876	0.293654	0.213409	2140.152832
7275.596825	0.091117	0.213409	2226.622803
7275.597865	0.091670	0.213409	2321.959473
7275.598798	0.092000	0.213409	2407.794922
7275.599659	0.092109	0.213409	2487.101074
7275.600712	0.091315	0.213409	2583.255371
7275.601734	0.091696	0.213409	2676.968262
7275.602617	0.091923	0.213409	2758.135986
7275.603598	0.091150	0.213409	2847.553955
7275.604648	0.091044	0.213409	2943.149902
7275.605564	0.091527	0.213409	3026.988770
7276.596158	0.644407	0.244278	273.872864
7276.597211	0.281781	0.244278	570.588257
7276.598246	0.289219	0.244278	869.929687
7276.599127	0.286183	0.244278	1122.056763
7276.600081	0.275317	0.244278	1384.709473
7276.601134	0.256088	0.244278	1654.369751
7276.602072	0.246324	0.244278	1885.422119
7276.602943	0.305380	0.244278	2151.407715
7276.603981	0.090795	0.244278	2245.652588
7276.604991	0.091626	0.244278	2338.194824
7276.605877	0.092509	0.244278	2420.157471
7276.606823	0.091436	0.244278	2506.655518
7276.607866	0.091179	0.244278	2601.755371
7276.608792	0.091824	0.244278	2686.784180
7276.609652	0.091377	0.244278	2765.368408
7276.610740	0.090828	0.244278	2864.188965
7276.611742	0.091069	0.244278	2955.440430
7276.612635	0.091450	0.244278	3037.105469
7277.626299	0.631560	0.224419	268.413025
7277.627394	0.282407	0.224419	577.648926
7277.628363	0.289332	0.224419	858.011902
7277.629243	0.286256	0.224419	1109.917236
7277.630264	0.274464	0.224419	1390.145020
7277.631329	0.255183	0.224419	1661.915039
7277.632211	0.246339	0.224419	1879.186157
7277.633099	0.294016	0.224419	2140.272461
7277.634178	0.090864	0.224419	2238.314941
7277.635135	0.092260	0.224419	2326.607422
7277.635994	0.092281	0.224419	2405.877197
7277.637049	0.091454	0.224419	2502.361084
7277.638094	0.091315	0.224419	2597.784912
7277.638968	0.091659	0.224419	2677.894775
7277.639904	0.090970	0.224419	2763.043213
7277.640972	0.090974	0.224419	2860.203613
7277.641903	0.091919	0.224419	2945.780273
7277.642770	0.091604	0.224419	3025.200928
7278.630952	0.552975	0.256947	288.099884
7278.631875	0.281799	0.256947	548.200684
7278.632740	0.289131	0.256947	798.298889
7278.633828	0.286278	0.256947	1109.769409
7278.634840	0.274263	0.256947	1387.323242
7278.635726	0.257889	0.256947	1615.813232
7278.636634	0.246907	0.256947	1840.004517
7278.637510	0.309393	0.256947	2111.032959
7278.638495	0.090934	0.256947	2200.602783
7278.639415	0.091926	0.256947	2285.175049
7278.640290	0.091783	0.256947	2365.485596
7278.641315	0.091681	0.256947	2459.458496
7278.642208	0.091879	0.256947	2541.506104
7278.643127	0.091604	0.256947	2625.690186
7278.643992	0.091282	0.256947	2704.648926
7278.644974	0.091260	0.256947	2794.266113
7278.645893	0.091271	0.256947	2878.144043
7278.646767	0.091007	0.256947	2957.684326
7279.664649	0.551404	0.212700	267.430847
7279.665533	0.280265	0.212700	515.184998
7279.666399	0.288783	0.212700	765.271057
7279.667366	0.287003	0.212700	1042.803101
7279.668328	0.277346	0.212700	1309.610107
7279.669207	0.262394	0.212700	1540.254272
7279.670142	0.248225	0.212700	1772.344727
7279.671222	0.330289	0.212700	2129.057129
7279.672114	0.091117	0.212700	2210.333496
7279.672979	0.092109	0.212700	2290.008057
7279.674020	0.091428	0.212700	2385.184814
7279.674985	0.091593	0.212700	2473.572021
7279.675860	0.091725	0.212700	2553.831299
7279.676774	0.091454	0.212700	2637.420166
7279.677835	0.091219	0.212700	2734.204102
7279.678714	0.091388	0.212700	2814.534180
7279.679570	0.091560	0.212700	2892.909668
7279.680591	0.090824	0.212700	2985.640869
7280.668610	0.634823	0.248383	273.608734
7280.669472	0.278914	0.248383	514.032227
7280.670511	0.288871	0.248383	814.169067
7280.671470	0.286718	0.248383	1089.131226
7280.672346	0.277496	0.248383	1332.218018
7280.673229	0.261885	0.248383	1563.462280
7280.674335	0.247324	0.248383	1837.002930
7280.675221	0.311993	0.248383	2113.429199
7280.676080	0.091011	0.248383	2191.607422
7280.677185	0.091487	0.248383	2292.700439
7280.678156	0.091824	0.248383	2381.861328
7280.679027	0.092003	0.248383	2461.996094
7280.680042	0.091157	0.248383	2554.520752
7280.681093	0.091139	0.248383	2650.307861
7280.681984	0.091384	0.248383	2731.731201
7280.682913	0.090989	0.248383	2816.259766
7280.683980	0.090765	0.248383	2913.106445
7280.684928	0.091198	0.248383	2999.561768
7281.699900	0.486398	0.226199	268.005127
7281.700956	0.284048	0.226199	567.959717
7281.701845	0.289874	0.226199	825.657959
7281.702743	0.286311	0.226199	1082.765259
7281.703835	0.273325	0.226199	1381.236328
7281.704796	0.255392	0.226199	1626.667847
7281.705666	0.246768	0.226199	1841.355591
7281.706733	0.260812	0.226199	2119.641846
7281.707752	0.091201	0.226199	2212.575928
7281.708644	0.092289	0.226199	2294.897461
7281.709594	0.091644	0.226199	2381.959473
7281.710636	0.091718	0.226199	2477.529053
7281.711565	0.092194	0.226199	2563.177002
7281.712428	0.091901	0.226199	2642.487305
7281.713497	0.091000	0.226199	2739.766113
7281.714505	0.091051	0.226199	2831.545654
7281.715381	0.091637	0.226199	2911.819580
7281.716356	0.091183	0.226199	3000.722900
7282.704368	0.550920	0.248850	260.585358
7282.705250	0.280298	0.248850	507.808044
7282.706222	0.289120	0.248850	788.832520
7282.707285	0.286487	0.248850	1093.368042
7282.708214	0.275852	0.248850	1349.634644
7282.709087	0.259706	0.248850	1576.357788
7282.710179	0.246760	0.248850	1845.819946
7282.711182	0.293573	0.248850	2140.273682
7282.712060	0.091051	0.248850	2220.216553
7282.713053	0.091699	0.248850	2311.273926
7282.714103	0.091849	0.248850	2407.715820
7282.714998	0.092018	0.248850	2490.071777
7282.715853	0.091710	0.248850	2568.483887
7282.716952	0.091047	0.248850	2668.544922
7282.717914	0.091465	0.248850	2756.534180
7282.718770	0.091216	0.248850	2834.614990
7282.719835	0.090769	0.248850	2931.283936
7282.720886	0.091040	0.248850	3026.967041
7283.737114	0.538066	0.223295	271.723511
7283.738034	0.281279	0.223295	530.500488
7283.738900	0.288981	0.223295	780.757812
7283.739985	0.286252	0.223295	1091.341675
7283.740995	0.274453	0.223295	1368.539307
7283.741885	0.258146	0.223295	1598.289062
7283.742866	0.247013	0.223295	1840.608765
7283.743918	0.220664	0.223295	2072.747314
7283.744818	0.091033	0.223295	2154.676758
7283.745677	0.091761	0.223295	2233.499756
7283.746762	0.091553	0.223295	2332.834473
7283.747761	0.091849	0.223295	2424.592041
7283.748638	0.092043	0.223295	2505.314209
7283.749627	0.091095	0.223295	2595.407227
7283.750683	0.091128	0.223295	2691.638428
7283.751584	0.091044	0.223295	2773.668701
7283.752454	0.090923	0.223295	2852.771484
7283.753545	0.090659	0.223295	2951.680664
7284.741067	0.644777	0.256573	281.122589
7284.741936	0.279412	0.256573	523.931274
7284.742957	0.289065	0.256573	819.066589
7284.744009	0.286578	0.256573	1120.547119
7284.744916	0.276255	0.256573	1371.110229
7284.745844	0.259856	0.256573	1612.256592
7284.746716	0.247412	0.256573	1828.000000
7284.747696	0.257725	0.256573	2080.570068
7284.748621	0.090637	0.256573	2164.409424
7284.749493	0.091787	0.256573	2244.447754
7284.750466	0.091794	0.256573	2333.763672
7284.751372	0.091970	0.256573	2417.088623
7284.752287	0.091659	0.256573	2500.956543
7284.753160	0.091432	0.256573	2580.776611
7284.754202	0.091128	0.256573	2675.731934
7284.755096	0.091084	0.256573	2757.161133
7284.756009	0.091498	0.256573	2840.698730
7284.756871	0.090773	0.256573	2918.944824
7285.773849	0.537894	0.218904	275.939758
7285.774748	0.281283	0.218904	528.813110
7285.775622	0.289153	0.218904	781.532715
7285.776670	0.286644	0.218904	1081.935913
7285.777647	0.275823	0.218904	1351.414795
7285.778520	0.260039	0.218904	1578.428955
7285.779394	0.247397	0.218904	1794.654297
7285.780526	0.305951	0.218904	2140.990723
7285.781406	0.091534	0.218904	2221.541016
7285.782262	0.092124	0.218904	2300.399170
7285.783280	0.091512	0.218904	2393.558838
7285.784239	0.091725	0.218904	2481.522949
7285.785158	0.092227	0.218904	2566.279053
7285.786023	0.091315	0.218904	2645.266357
7285.787141	0.091194	0.218904	2747.221191
7285.788040	0.091344	0.218904	2829.339355
7285.788907	0.091670	0.218904	2908.817139
7285.789976	0.090787	0.218904	3005.868896
7286.778805	0.646359	0.256814	272.116974
7286.779926	0.282982	0.256814	589.339966
7286.780892	0.289607	0.256814	869.100220
7286.781765	0.286505	0.256814	1119.219238
7286.782783	0.274420	0.256814	1398.578979
7286.783838	0.255037	0.256814	1667.642578
7286.784738	0.246519	0.256814	1889.509277
7286.785685	0.242098	0.256814	2118.776367
7286.786750	0.090952	0.256814	2215.640381
7286.787686	0.091904	0.256814	2301.662842
7286.788549	0.091805	0.256814	2380.890869
7286.789609	0.091293	0.256814	2477.661133
7286.790619	0.091417	0.256814	2569.992432
7286.791507	0.091600	0.256814	2651.333496
7286.792483	0.091029	0.256814	2740.177734
7286.793521	0.091073	0.256814	2834.711426
7286.794437	0.091172	0.256814	2918.224854
7286.795295	0.091198	0.256814	2996.472412
7287.810069	0.580283	0.222699	297.104980
7287.810988	0.281433	0.222699	555.742004
7287.811857	0.288948	0.222699	806.837585
7287.812923	0.285996	0.222699	1111.709473
7287.813936	0.274076	0.222699	1389.348389
7287.814835	0.257736	0.222699	1621.052734
7287.815829	0.246866	0.222699	1866.437988
7287.816886	0.273809	0.222699	2155.853760
7287.817794	0.091692	0.222699	2239.110107
7287.818657	0.091666	0.222699	2318.218018
7287.819760	0.091560	0.222699	2419.208740
7287.820732	0.091853	0.222699	2508.489990
7287.821596	0.091794	0.222699	2587.800293
7287.822686	0.091058	0.222699	2687.053955
7287.823705	0.091626	0.222699	2780.420898
7287.824595	0.091659	0.222699	2861.997314
7287.825515	0.091234	0.222699	2945.932617
7287.826564	0.090824	0.222699	3041.207031
7288.816700	0.513512	0.256823	284.999146
7288.817613	0.282081	0.256823	542.539307
7288.818532	0.289274	0.256823	808.381836
7288.819409	0.286710	0.256823	1059.826660
7288.820461	0.275501	0.256823	1349.653198
7288.821359	0.259263	0.256823	1582.471069
7288.822240	0.247068	0.256823	1800.137817
7288.823217	0.315381	0.256823	2108.264893
7288.824163	0.091227	0.256823	2194.565430
7288.825083	0.091967	0.256823	2279.174561
7288.825947	0.092827	0.256823	2359.377197
7288.826987	0.091761	0.256823	2454.809082
7288.827864	0.091699	0.256823	2535.229248
7288.828728	0.091608	0.256823	2614.378174
7288.829653	0.091040	0.256823	2698.590332
7288.830645	0.091549	0.256823	2789.406982
7288.831553	0.091311	0.256823	2872.317383
7288.832431	0.091443	0.256823	2952.604248
7289.844670	0.630524	0.224874	269.233612
7289.845532	0.279207	0.224874	509.909668
7289.846619	0.289171	0.224874	824.238708
7289.847531	0.287073	0.224874	1086.049072
7289.848410	0.277826	0.224874	1330.258057
7289.849405	0.260596	0.224874	1589.550781
7289.850414	0.246914	0.224874	1838.687012
7289.851309	0.322350	0.224874	2127.190186
7289.852170	0.090586	0.224874	2205.184570
7289.853267	0.091586	0.224874	2305.654053
7289.854185	0.091930	0.224874	2390.045654
7289.855062	0.092164	0.224874	2470.873779
7289.856070	0.091234	0.224874	2562.837891
7289.857065	0.091498	0.224874	2653.878174
7289.857947	0.091860	0.224874	2734.898926
7289.858808	0.091384	0.224874	2813.580811
7289.859900	0.090948	0.224874	2912.896484
7289.860806	0.091388	0.224874	2995.693848
7290.856466	0.580016	0.249467	292.908020
7290.857370	0.281188	0.249467	547.101746
7290.858239	0.288984	0.249467	798.229126
7290.859316	0.286132	0.249467	1106.392822
7290.860322	0.274406	0.249467	1382.444824
7290.861214	0.258325	0.249467	1612.870850
7290.862188	0.246892	0.249467	1853.343750
7290.863247	0.256648	0.249467	2125.133789
7290.864146	0.091055	0.249467	2206.991943
7290.865012	0.091857	0.249467	2286.539795
7290.866114	0.091520	0.249467	2387.394531
7290.867095	0.091630	0.249467	2477.283203
7290.867960	0.091886	0.249467	2556.764648
7290.869075	0.090985	0.249467	2658.213135
7290.870101	0.091058	0.249467	2751.638916
7290.870991	0.091531	0.249467	2833.101318
7290.871924	0.091135	0.249467	2918.130615
7290.872975	0.090769	0.249467	3013.528809
7291.878963	0.498600	0.225055	266.750916
7291.880010	0.283400	0.225055	563.470337
7291.880904	0.289398	0.225055	822.192322
7291.881853	0.285809	0.225055	1093.425415
7291.882910	0.272812	0.225055	1381.788208
7291.883857	0.255172	0.225055	1623.436157
7291.884723	0.246357	0.225055	1836.781738
7291.885792	0.241641	0.225055	2095.095459
7291.886806	0.091205	0.225055	2187.577148
7291.887693	0.092278	0.225055	2269.427490
7291.888663	0.091718	0.225055	2358.393555
7291.889712	0.091436	0.225055	2454.309326
7291.890617	0.091967	0.225055	2537.539062
7291.891476	0.091674	0.225055	2616.286621
7291.892543	0.090890	0.225055	2713.266113
7291.893543	0.091179	0.225055	2804.445312
7291.894420	0.091523	0.225055	2884.711426
7291.895408	0.090809	0.225055	2974.431152
7292.896276	0.569359	0.249878	288.665070
7292.897182	0.281700	0.249878	543.885681
7292.898046	0.289530	0.249878	794.039612
7292.899139	0.286794	0.249878	1107.505981
7292.900142	0.275306	0.249878	1383.638306
7292.901020	0.259131	0.249878	1611.155273
7292.901992	0.247126	0.249878	1851.362183
7292.903069	0.266968	0.249878	2138.886475
7292.903948	0.091432	0.249878	2219.255127
7292.904817	0.091703	0.249878	2298.944824
7292.905909	0.091472	0.249878	2398.832520
7292.906870	0.091802	0.249878	2487.053955
7292.907749	0.091846	0.249878	2567.786377
7292.908757	0.091077	0.249878	2659.591553
7292.909805	0.091146	0.249878	2755.112793
7292.910689	0.091267	0.249878	2835.792969
7292.911571	0.091157	0.249878	2916.193604
7292.912665	0.090685	0.249878	3015.402832
7293.911995	0.644634	0.237914	272.680084
7293.913059	0.281931	0.237914	572.654846
7293.913942	0.289435	0.237914	828.225830
7293.914802	0.287347	0.237914	1075.344604
7293.915843	0.276035	0.237914	1362.697266
7293.916818	0.258981	0.237914	1615.203491
7293.917695	0.247145	0.237914	1831.949463
7293.918579	0.258900	0.237914	2060.817139
7293.919705	0.090626	0.237914	2162.862305
7293.920595	0.091747	0.237914	2244.517090
7293.921458	0.091875	0.237914	2323.805176
7293.922533	0.091432	0.237914	2422.094482
7293.923497	0.091648	0.237914	2510.443115
7293.924372	0.091754	0.237914	2590.728027
7293.925258	0.091150	0.237914	2671.486816
7293.926363	0.090985	0.237914	2772.025391
7293.927240	0.091465	0.237914	2852.239990
7293.928098	0.090883	0.237914	2930.217285
7294.937040	0.565514	0.239642	249.391632
7294.937903	0.279489	0.239642	490.590240
7294.939029	0.288977	0.239642	815.978394
7294.940005	0.285886	0.239642	1095.003418
7294.940875	0.275793	0.239642	1334.943726
7294.941912	0.257465	0.239642	1601.934570
7294.942952	0.246288	0.239642	1858.073975
7294.943846	0.271165	0.239642	2100.495117
7294.944716	0.091165	0.239642	2179.808350
7294.945840	0.091523	0.239642	2282.680664
7294.946784	0.092157	0.239642	2369.676758
7294.947645	0.091780	0.239642	2448.699219
7294.948667	0.091124	0.239642	2541.828125
7294.949692	0.091512	0.239642	2635.628418
7294.950582	0.091516	0.239642	2717.077637
7294.951510	0.091022	0.239642	2801.545898
7294.952567	0.090590	0.239642	2897.299072
7294.953505	0.091025	0.239642	2982.680908
7295.945275	0.499138	0.232032	268.536346
7295.946320	0.283462	0.232032	564.754028
7295.947217	0.289058	0.232032	824.038696
7295.948184	0.285260	0.232032	1099.885132
7295.949247	0.272106	0.232032	1389.133545
7295.950178	0.254780	0.232032	1626.333984
7295.951045	0.246376	0.232032	1839.941772
7295.952128	0.255070	0.232032	2116.182129
7295.953122	0.091282	0.232032	2206.916260
7295.954013	0.092827	0.232032	2289.625244
7295.955001	0.091578	0.232032	2380.104736
7295.956047	0.091791	0.232032	2476.117920
7295.956958	0.091641	0.232032	2559.602539
7295.957818	0.091597	0.232032	2638.375732
7295.958907	0.090861	0.232032	2737.322998
7295.959892	0.091373	0.232032	2827.325684
7295.960768	0.091146	0.232032	2907.169678
7295.961759	0.090835	0.232032	2997.187012
7296.977351	0.617186	0.243706	268.476013
7296.978219	0.279371	0.243706	510.970337
7296.979084	0.288929	0.243706	760.894287
7296.980076	0.287644	0.243706	1046.237183
7296.981004	0.278771	0.243706	1304.936523
7296.981874	0.264228	0.243706	1534.815308
7296.982909	0.247910	0.243706	1791.402344
7296.983803	0.310118	0.243706	2068.648193
7296.984724	0.090820	0.243706	2152.293701
7296.985587	0.091494	0.243706	2231.253174
7296.986593	0.091670	0.243706	2323.473145
7296.987513	0.092076	0.243706	2408.183350
7296.988373	0.091824	0.243706	2487.151855
7296.989426	0.091307	0.243706	2583.298584
7296.990301	0.091377	0.243706	2663.253418
7296.991174	0.091611	0.243706	2743.230225
7296.992063	0.090864	0.243706	2824.008545
7296.993093	0.090883	0.243706	2917.617676
7297.976780	0.562280	0.245100	248.527863
7297.977661	0.279877	0.245100	495.099243
7297.978670	0.289285	0.245100	786.987488
7297.979675	0.286747	0.245100	1075.168091
7297.980575	0.276841	0.245100	1324.324829
7297.981442	0.260995	0.245100	1550.607422
7297.982545	0.247145	0.245100	1823.208130
7297.983449	0.303072	0.245100	2097.185547
7297.984318	0.091487	0.245100	2176.687500
7297.985340	0.091688	0.245100	2270.392822
7297.986339	0.092095	0.245100	2362.395508
7297.987220	0.091853	0.245100	2443.318115
7297.988075	0.091875	0.245100	2521.871338
7297.989164	0.091219	0.245100	2621.209473
7297.990058	0.091630	0.245100	2703.126465
7297.990929	0.092040	0.245100	2783.293213
7297.991906	0.091029	0.245100	2872.228516
7297.992909	0.091282	0.245100	2963.784180
7299.019717	0.630729	0.232238	273.736298
7299.020585	0.279232	0.232238	516.109802
7299.021625	0.289186	0.232238	816.863037
7299.022659	0.286600	0.232238	1113.207764
7299.023557	0.276511	0.232238	1361.514893
7299.024515	0.259691	0.232238	1610.299072
7299.025570	0.246914	0.232238	1870.793457
7299.026518	0.291431	0.232238	2147.069824
7299.027378	0.090835	0.232238	2225.187988
7299.028461	0.091472	0.232238	2324.252441
7299.029459	0.091685	0.232238	2415.753662
7299.030343	0.091794	0.232238	2496.899902
7299.031341	0.091421	0.232238	2588.137939
7299.032387	0.091106	0.232238	2683.434814
7299.033290	0.091366	0.232238	2765.938232
7299.034147	0.091198	0.232238	2844.094482
7299.035243	0.090784	0.232238	2943.593506
7299.036232	0.091183	0.232238	3033.773437
7300.009418	0.572303	0.257302	252.385834
7300.010303	0.279346	0.257302	499.606750
7300.011296	0.288560	0.257302	786.146423
7300.012359	0.285967	0.257302	1090.129150
7300.013260	0.275775	0.257302	1338.602539
7300.014127	0.259786	0.257302	1563.837402
7300.015250	0.246431	0.257302	1840.579102
7300.016226	0.275724	0.257302	2109.685547
7300.017091	0.090886	0.257302	2188.302246
7300.018130	0.091392	0.257302	2283.258057
7300.019156	0.091666	0.257302	2377.307617
7300.020042	0.092120	0.257302	2458.926270
7300.020963	0.091128	0.257302	2542.854980
7300.022034	0.090967	0.257302	2640.280518
7300.022972	0.091238	0.257302	2725.861572
7300.023831	0.091351	0.257302	2804.332275
7300.024884	0.090769	0.257302	2899.912109
7300.025908	0.090989	0.257302	2993.084717
7301.061060	0.603321	0.217933	261.238220
7301.061923	0.279448	0.217933	502.402039
7301.062923	0.288801	0.217933	791.203308
7301.063841	0.287289	0.217933	1054.934448
7301.064716	0.278815	0.217933	1298.897339
7301.065648	0.263683	0.217933	1544.649780
7301.066591	0.248082	0.217933	1778.591309
7301.067517	0.320980	0.217933	2075.819092
7301.068389	0.090117	0.217933	2154.401367
7301.069420	0.091666	0.217933	2248.909180
7301.070334	0.091681	0.217933	2332.705566
7301.071223	0.091893	0.217933	2414.398682
7301.072084	0.091893	0.217933	2493.518799
7301.073097	0.091512	0.217933	2586.220947
7301.074023	0.091208	0.217933	2670.679932
7301.074885	0.091219	0.217933	2749.311035
7301.075909	0.091069	0.217933	2842.565918
7301.076782	0.091439	0.217933	2922.392334
7302.042587	0.548778	0.265927	243.108673
7302.043468	0.279727	0.265927	489.547729
7302.044336	0.288655	0.265927	740.100098
7302.045373	0.286956	0.265927	1037.672974
7302.046285	0.277518	0.265927	1290.769653
7302.047190	0.262280	0.265927	1528.133301
7302.048064	0.248049	0.265927	1744.928345
7302.049096	0.325997	0.265927	2081.357666
7302.049992	0.091322	0.265927	2163.182129
7302.050862	0.092318	0.265927	2243.498779
7302.051839	0.091729	0.265927	2333.117432
7302.052802	0.092003	0.265927	2421.716553
7302.053723	0.091406	0.265927	2505.901611
7302.054588	0.091710	0.265927	2585.230957
7302.055633	0.091267	0.265927	2680.604980
7302.056509	0.091384	0.265927	2760.657715
7302.057376	0.091366	0.265927	2839.872070
7302.058302	0.090879	0.265927	2924.025879
7303.100347	0.644978	0.215480	273.470673
7303.101426	0.281957	0.215480	577.702026
7303.102441	0.289288	0.215480	871.329651
7303.103321	0.286179	0.215480	1123.167358
7303.104331	0.274460	0.215480	1400.372437
7303.105380	0.255374	0.215480	1668.259277
7303.106277	0.246522	0.215480	1889.389648
7303.107146	0.292573	0.215480	2143.635742
7303.108281	0.091011	0.215480	2246.932861
7303.109239	0.092252	0.215480	2335.310547
7303.110109	0.092424	0.215480	2415.719727
7303.111131	0.091190	0.215480	2508.916016
7303.112168	0.091582	0.215480	2603.886475
7303.113056	0.091512	0.215480	2685.149414
7303.113963	0.090923	0.215480	2767.616455
7303.115039	0.090912	0.215480	2865.437500
7303.115987	0.090959	0.215480	2951.666992
7303.116861	0.091121	0.215480	3031.306396
7304.076726	0.644059	0.268344	271.148804
7304.077774	0.281572	0.268344	566.236511
7304.078813	0.289343	0.268344	866.864136
7304.079694	0.286187	0.268344	1118.994507
7304.080621	0.275449	0.268344	1374.335937
7304.081710	0.255916	0.268344	1653.027954
7304.082644	0.246273	0.268344	1883.047119
7304.083519	0.284905	0.268344	2132.338867
7304.084575	0.090754	0.268344	2228.175537
7304.085587	0.091630	0.268344	2320.904785
7304.086479	0.092051	0.268344	2403.014160
7304.087444	0.091337	0.268344	2491.154053
7304.088486	0.091542	0.268344	2586.540527
7304.089408	0.091326	0.268344	2670.742920
7304.090270	0.091143	0.268344	2749.307861
7304.091363	0.090864	0.268344	2848.622559
7304.092353	0.090765	0.268344	2938.480225
7304.093243	0.091241	0.268344	3019.685059
7305.139642	0.644132	0.208092	271.179596
7305.140612	0.279631	0.208092	542.421997
7305.141671	0.288809	0.208092	848.270264
7305.142603	0.285809	0.208092	1114.644531
7305.143477	0.275618	0.208092	1355.534424
7305.144551	0.256857	0.208092	1631.398437
7305.145557	0.246226	0.208092	1879.101318
7305.146456	0.290186	0.208092	2139.978027
7305.147445	0.090769	0.208092	2229.748535
7305.148506	0.091718	0.208092	2327.060791
7305.149411	0.092098	0.208092	2410.409912
7305.150275	0.091794	0.208092	2489.720215
7305.151383	0.091066	0.208092	2590.621094
7305.152352	0.091300	0.208092	2679.090820
7305.153214	0.091608	0.208092	2758.056641
7305.154302	0.090868	0.208092	2856.920898
7305.155328	0.090912	0.208092	2950.196533
7305.156206	0.091194	0.208092	3030.264648
7306.112458	0.645062	0.269157	282.537262
7306.113319	0.279302	0.269157	523.016113
7306.114392	0.289135	0.269157	833.257446
7306.115406	0.286300	0.269157	1123.565674
7306.116278	0.276581	0.269157	1364.744141
7306.117258	0.259061	0.269157	1618.624146
7306.118313	0.246866	0.269157	1879.068237
7306.119235	0.300590	0.269157	2156.211914
7306.120104	0.091018	0.269157	2235.306641
7306.121177	0.091707	0.269157	2333.707764
7306.122172	0.092109	0.269157	2425.356689
7306.123064	0.091882	0.269157	2507.315674
7306.124039	0.091190	0.269157	2596.226074
7306.125087	0.091128	0.269157	2691.728027
7306.125983	0.091329	0.269157	2773.559082
7306.126847	0.091102	0.269157	2852.271484
7306.127928	0.090751	0.269157	2950.373047
7306.128887	0.091337	0.269157	3037.964844
7307.176385	0.645132	0.209176	278.051819
7307.177253	0.279463	0.209176	520.625610
7307.178285	0.289219	0.209176	819.099365
7307.179201	0.287318	0.209176	1082.282715
7307.180125	0.277925	0.209176	1339.085205
7307.180995	0.262310	0.209176	1567.294556
7307.182064	0.247317	0.209176	1831.676270
7307.182961	0.315410	0.209176	2114.599121
7307.183828	0.091161	0.209176	2193.635498
7307.184838	0.091597	0.209176	2286.148193
7307.185763	0.092336	0.209176	2371.559326
7307.186681	0.091516	0.209176	2455.571045
7307.187536	0.091333	0.209176	2533.660645
7307.188552	0.091439	0.209176	2626.562988
7307.189450	0.091538	0.209176	2708.764160
7307.190324	0.091490	0.209176	2788.726807
7307.191273	0.091033	0.209176	2875.116943
7307.192236	0.091205	0.209176	2962.947266
7308.148277	0.514816	0.275494	275.941223
7308.149163	0.281309	0.275494	525.180664
7308.150026	0.289127	0.275494	774.697449
7308.150922	0.287153	0.275494	1031.986816
7308.151969	0.276471	0.275494	1321.451904
7308.152865	0.261006	0.275494	1555.313232
7308.153750	0.247822	0.275494	1774.635986
7308.154752	0.316545	0.275494	2091.814453
7308.155677	0.091439	0.275494	2176.395752
7308.156605	0.091655	0.275494	2261.451904
7308.157465	0.092040	0.275494	2340.606201
7308.158487	0.092029	0.275494	2434.659668
7308.159361	0.092065	0.275494	2515.124756
7308.160230	0.091915	0.275494	2594.999023
7308.161219	0.091249	0.275494	2685.244141
7308.162143	0.091388	0.275494	2769.686523
7308.163055	0.091802	0.275494	2853.409668
7308.163931	0.091575	0.275494	2933.629150
7309.214237	0.565950	0.209639	286.936493
7309.215242	0.282374	0.209639	570.722656
7309.216123	0.288988	0.209639	825.321106
7309.217113	0.285919	0.209639	1108.381104
7309.218182	0.273464	0.209639	1400.714478
7309.219074	0.256864	0.209639	1629.837158
7309.219977	0.246412	0.209639	1852.347534
7309.221078	0.275988	0.209639	2156.209717
7309.222026	0.091578	0.209639	2243.026123
7309.222898	0.091857	0.209639	2323.125244
7309.223925	0.091542	0.209639	2417.138672
7309.224951	0.091622	0.209639	2511.143066
7309.225836	0.092314	0.209639	2592.841309
7309.226747	0.091315	0.209639	2676.029053
7309.227816	0.090945	0.209639	2773.249023
7309.228762	0.091736	0.209639	2860.031250
7309.229625	0.091465	0.209639	2938.965332
7309.230674	0.090839	0.209639	3034.255127
7310.185414	0.631520	0.269278	272.816559
7310.186281	0.279514	0.269278	515.155334
7310.187348	0.289248	0.269278	823.782959
7310.188356	0.286329	0.269278	1112.402954
7310.189250	0.276328	0.269278	1359.440308
7310.190237	0.258988	0.269278	1615.061523
7310.191294	0.246709	0.269278	1875.832886
7310.192212	0.290991	0.269278	2142.962891
7310.193078	0.090930	0.269278	2221.708496
7310.194185	0.091487	0.269278	2322.984375
7310.195161	0.092010	0.269278	2412.786621
7310.196027	0.091593	0.269278	2492.106201
7310.197100	0.091260	0.269278	2590.027832
7310.198136	0.090967	0.269278	2684.269531
7310.199037	0.091333	0.269278	2766.560547
7310.199958	0.090890	0.269278	2850.270020
7310.201017	0.090901	0.269278	2946.533936
7310.201951	0.091121	0.269278	3031.640625
7311.250983	0.538912	0.213438	281.312256
7311.251920	0.281708	0.213438	545.272461
7311.252783	0.288805	0.213438	794.511108
7311.253855	0.285663	0.213438	1100.741699
7311.254873	0.273772	0.213438	1379.441528
7311.255757	0.257644	0.213438	1607.198853
7311.256735	0.246526	0.213438	1848.301147
7311.257805	0.251744	0.213438	2117.667725
7311.258705	0.091450	0.213438	2199.972900
7311.259569	0.091956	0.213438	2279.422607
7311.260649	0.091490	0.213438	2378.232422
7311.261637	0.091816	0.213438	2468.947021
7311.262535	0.091274	0.213438	2550.911377
7311.263525	0.091187	0.213438	2641.186035
7311.264582	0.090886	0.213438	2737.252686
7311.265479	0.091626	0.213438	2819.441162
7311.266343	0.091040	0.213438	2898.099854
7311.267453	0.090732	0.213438	2998.812744
7312.222141	0.644707	0.271268	272.711060
7312.223064	0.279983	0.271268	531.135254
7312.224140	0.289281	0.271268	842.401611
7312.225094	0.286461	0.271268	1115.685547
7312.225972	0.276398	0.271268	1358.362793
7312.227014	0.257714	0.271268	1626.900391
7312.228041	0.246562	0.271268	1880.120117
7312.228940	0.312151	0.271268	2160.743652
7312.229905	0.091047	0.271268	2248.604248
7312.230959	0.091846	0.271268	2345.409668
7312.231887	0.092369	0.271268	2431.128418
7312.232750	0.091780	0.271268	2510.334473
7312.233828	0.091329	0.271268	2608.787598
7312.234825	0.091589	0.271268	2700.102295
7312.235718	0.091824	0.271268	2782.100830
7312.236683	0.091018	0.271268	2869.933350
7312.237727	0.091110	0.271268	2965.051758
7312.238626	0.091824	0.271268	3047.601318
7313.287769	0.472031	0.212765	271.889984
7313.288661	0.282162	0.212765	523.578369
7313.289534	0.289559	0.212765	776.363647
7313.290421	0.287205	0.212765	1031.114136
7313.291476	0.276383	0.212765	1322.698242
7313.292362	0.260713	0.212765	1553.689819
7313.293236	0.247537	0.212765	1770.036865
7313.294353	0.269575	0.212765	2071.152344
7313.295261	0.090941	0.212765	2153.726807
7313.296138	0.092216	0.212765	2234.599854
7313.297136	0.091575	0.212765	2325.991455
7313.298140	0.091633	0.212765	2417.991211
7313.299037	0.091941	0.212765	2500.462158
7313.299899	0.091311	0.212765	2579.172363
7313.300986	0.091011	0.212765	2678.101074
7313.301877	0.091029	0.212765	2759.208008
7313.302744	0.091296	0.212765	2838.362061
7313.303747	0.090875	0.212765	2929.510010
7314.258382	0.618896	0.268976	272.933350
7314.259261	0.279635	0.268976	518.732544
7314.260269	0.288940	0.268976	809.984497
7314.261274	0.286849	0.268976	1098.268066
7314.262165	0.277050	0.268976	1345.119263
7314.263026	0.261401	0.268976	1570.185791
7314.264126	0.247137	0.268976	1842.036987
7314.265046	0.305303	0.268976	2122.915527
7314.265908	0.091084	0.268976	2201.429932
7314.266874	0.091476	0.268976	2289.795654
7314.267886	0.091703	0.268976	2382.598877
7314.268777	0.091886	0.268976	2464.469238
7314.269643	0.091567	0.268976	2543.766602
7314.270719	0.091201	0.268976	2641.899170
7314.271655	0.091487	0.268976	2727.530762
7314.272532	0.091425	0.268976	2807.710205
7314.273490	0.090861	0.268976	2894.754639
7314.274509	0.091168	0.268976	2987.655029
7315.324406	0.578906	0.212817	276.138275
7315.325285	0.280173	0.212817	522.410645
7315.326260	0.288915	0.212817	804.102539
7315.327328	0.286230	0.212817	1109.796631
7315.328242	0.275651	0.212817	1361.741333
7315.329106	0.259666	0.212817	1586.092285
7315.330224	0.246720	0.212817	1861.925171
7315.331225	0.280994	0.212817	2143.199707
7315.332095	0.091036	0.212817	2222.401367
7315.333084	0.091608	0.212817	2313.001465
7315.334136	0.091479	0.212817	2409.237793
7315.335039	0.091897	0.212817	2492.220703
7315.335905	0.091813	0.212817	2571.730469
7315.337007	0.090967	0.212817	2671.975830
7315.337981	0.091490	0.212817	2761.087646
7315.338844	0.091307	0.212817	2839.885986
7315.339900	0.090751	0.212817	2935.718750
7315.340941	0.090798	0.212817	3030.239746
7316.295101	0.644835	0.276142	273.410126
7316.296021	0.279807	0.276142	530.832642
7316.297094	0.289167	0.276142	841.109375
7316.298052	0.286143	0.276142	1115.234009
7316.298923	0.276467	0.276142	1356.036987
7316.299988	0.257721	0.276142	1630.509766
7316.301011	0.246537	0.276142	1882.717041
7316.301911	0.296565	0.276142	2149.625488
7316.302880	0.090820	0.276142	2237.630371
7316.303928	0.091659	0.276142	2333.688965
7316.304836	0.091476	0.276142	2416.749023
7316.305694	0.091718	0.276142	2495.442627
7316.306770	0.091271	0.276142	2593.649902
7316.307762	0.091355	0.276142	2684.273926
7316.308642	0.091326	0.276142	2764.640625
7316.309627	0.090890	0.276142	2854.167236
7316.310685	0.091183	0.276142	2950.638672
7316.311577	0.090974	0.276142	3031.787598
7317.361595	0.644425	0.210324	271.947357
7317.362493	0.279814	0.210324	523.220703
7317.363592	0.289340	0.210324	841.204895
7317.364547	0.286725	0.210324	1115.027100
7317.365416	0.277028	0.210324	1355.764038
7317.366445	0.258706	0.210324	1621.972534
7317.367485	0.246658	0.210324	1878.496582
7317.368380	0.293577	0.210324	2141.247559
7317.369335	0.090681	0.210324	2227.848145
7317.370397	0.091842	0.210324	2325.384277
7317.371331	0.091805	0.210324	2411.130615
7317.372194	0.091626	0.210324	2490.203857
7317.373268	0.091157	0.210324	2588.106689
7317.374278	0.091520	0.210324	2680.541748
7317.375167	0.091802	0.210324	2762.153564
7317.376141	0.090908	0.210324	2850.698242
7317.377189	0.091033	0.210324	2946.100586
7317.378088	0.091121	0.210324	3028.018066
7318.332367	0.659608	0.275631	293.525604
7318.333463	0.282979	0.275631	603.670044
7318.334420	0.289395	0.275631	880.620605
7318.335283	0.286311	0.275631	1127.707031
7318.336331	0.274160	0.275631	1415.026855
7318.337369	0.255209	0.275631	1679.933594
7318.338253	0.246639	0.275631	1897.962891
7318.339219	0.242457	0.275631	2132.176758
7318.340283	0.090905	0.275631	2228.899170
7318.341213	0.092238	0.275631	2314.680176
7318.342070	0.091696	0.275631	2393.263184
7318.343116	0.091263	0.275631	2488.724609
7318.344131	0.091469	0.275631	2581.565186
7318.345020	0.091772	0.275631	2663.150879
7318.345975	0.091113	0.275631	2750.164062
7318.347027	0.090927	0.275631	2845.818848
7318.347939	0.091750	0.275631	2929.495361
7318.348806	0.091117	0.275631	3008.493652
7319.396376	0.555820	0.223186	281.245056
7319.397403	0.283220	0.223186	572.112244
7319.398278	0.289501	0.223186	825.425415
7319.399273	0.286252	0.223186	1110.246582
7319.400321	0.273604	0.223186	1396.983154
7319.401235	0.256571	0.223186	1631.489014
7319.402096	0.246735	0.223186	1843.927490
7319.403169	0.254088	0.223186	2116.563965
7319.404160	0.091007	0.223186	2206.751953
7319.405049	0.091992	0.223186	2288.532959
7319.406025	0.091476	0.223186	2377.813477
7319.407070	0.091399	0.223186	2473.325439
7319.407979	0.091567	0.223186	2556.560303
7319.408841	0.091377	0.223186	2635.327148
7319.409948	0.090842	0.223186	2735.889648
7319.410911	0.091216	0.223186	2823.730469
7319.411777	0.090985	0.223186	2902.523682
7319.412899	0.090626	0.223186	3004.206299
7320.370659	0.552825	0.271905	250.429581
7320.371537	0.279639	0.271905	495.952332
7320.372514	0.288732	0.271905	778.043213
7320.373559	0.286113	0.271905	1077.031616
7320.374477	0.275750	0.271905	1330.169678
7320.375347	0.259882	0.271905	1556.266602
7320.376447	0.246555	0.271905	1827.477295
7320.377453	0.286245	0.271905	2115.439941
7320.378343	0.091110	0.271905	2196.527588
7320.379332	0.091531	0.271905	2287.051514
7320.380391	0.091652	0.271905	2384.110596
7320.381281	0.091750	0.271905	2465.768555
7320.382163	0.091388	0.271905	2546.372803
7320.383253	0.091132	0.271905	2645.706299
7320.384225	0.091542	0.271905	2734.684814
7320.385088	0.091945	0.271905	2814.032959
7320.386120	0.090787	0.271905	2907.725586
7320.387140	0.090656	0.271905	3000.194092
7321.431995	0.644238	0.223255	271.868561
7321.433033	0.281686	0.223255	564.258423
7321.434000	0.289706	0.223255	844.403931
7321.434934	0.286659	0.223255	1112.143311
7321.435799	0.276024	0.223255	1350.904297
7321.436946	0.256981	0.223255	1645.661743
7321.437825	0.246815	0.223255	1862.612305
7321.438697	0.306537	0.223255	2129.912354
7321.439736	0.090912	0.223255	2224.369873
7321.440716	0.091758	0.223255	2314.292480
7321.441593	0.091725	0.223255	2394.735107
7321.442457	0.091527	0.223255	2473.814453
7321.443575	0.091285	0.223255	2575.871582
7321.444474	0.091538	0.223255	2658.164307
7321.445336	0.091110	0.223255	2736.700684
7321.446403	0.090981	0.223255	2833.777832
7321.447373	0.091029	0.223255	2922.075928
7321.448259	0.091238	0.223255	3002.912598
7322.408888	0.645407	0.274495	271.716156
7322.409975	0.282451	0.274495	578.740601
7322.410907	0.289482	0.274495	848.538208
7322.411790	0.286849	0.274495	1101.826172
7322.412784	0.275845	0.274495	1376.015869
7322.413796	0.257443	0.274495	1636.547852
7322.414685	0.246826	0.274495	1855.976318
7322.415559	0.307247	0.274495	2124.510498
7322.416646	0.090740	0.274495	2223.144531
7322.417559	0.091868	0.274495	2307.019775
7322.418424	0.092428	0.274495	2386.969971
7322.419408	0.091476	0.274495	2476.982178
7322.420414	0.091392	0.274495	2568.922119
7322.421285	0.091516	0.274495	2648.632568
7322.422238	0.091095	0.274495	2735.446045
7322.423304	0.091187	0.274495	2832.650879
7322.424221	0.091025	0.274495	2916.121094
7322.425091	0.091003	0.274495	2995.293945
7323.466761	1.202571	0.225680	601.285400
7323.467640	2.228379	0.225680	2560.030273
7323.468532	2.357208	0.225680	4662.660156
7323.469635	1.737411	0.225680	6579.024414
7323.470588	0.848925	0.225680	7388.049805
7323.471454	0.754812	0.225680	8041.716797
7323.472505	0.728130	0.225680	8806.981445
7323.473544	0.360751	0.225680	9181.801758
7323.474413	0.091066	0.225680	9260.937500
7323.475354	0.091454	0.225680	9346.995117
7323.476396	0.091465	0.225680	9442.301758
7323.477335	0.091608	0.225680	9528.321289
7323.478204	0.091633	0.225680	9607.950195
7323.479241	0.091058	0.225680	9702.377930
7323.480266	0.091219	0.225680	9795.877930
7323.481156	0.091681	0.225680	9877.473633
7323.482100	0.090945	0.225680	9963.325195
7323.483148	0.090740	0.225680	10058.420898
7324.448187	0.645168	0.268783	272.261108
7324.449264	0.282477	0.268783	576.488647
7324.450276	0.289600	0.268783	869.563477
7324.451152	0.286326	0.268783	1120.384766
7324.452156	0.274614	0.268783	1396.097412
7324.453211	0.255476	0.268783	1665.624756
7324.454113	0.246584	0.268783	1888.043945
7324.454979	0.284194	0.268783	2134.156250
7324.456090	0.090890	0.268783	2235.135010
7324.457051	0.091578	0.268783	2323.141846
7324.457921	0.091919	0.268783	2403.111328
7324.458917	0.091263	0.268783	2494.009766
7324.459966	0.091567	0.268783	2590.063965
7324.460855	0.091322	0.268783	2671.249268
7324.461738	0.091003	0.268783	2751.605225
7324.462835	0.090938	0.268783	2851.363770
7324.463787	0.091069	0.268783	2938.061768
7324.464658	0.090923	0.268783	3017.255615
7325.500370	0.618109	0.227170	271.349884
7325.501239	0.279749	0.227170	514.451355
7325.502291	0.289493	0.227170	818.998413
7325.503326	0.286802	0.227170	1115.838257
7325.504206	0.276812	0.227170	1359.432373
7325.505127	0.260742	0.227170	1599.575928
7325.505994	0.247570	0.227170	1814.218750
7325.506965	0.265151	0.227170	2071.680664
7325.507898	0.090652	0.227170	2156.258789
7325.508775	0.091996	0.227170	2236.939209
7325.509761	0.092095	0.227170	2327.744629
7325.510675	0.091948	0.227170	2411.785400
7325.511595	0.091644	0.227170	2496.098145
7325.512474	0.091586	0.227170	2576.602051
7325.513425	0.091835	0.227170	2663.936768
7325.514363	0.091388	0.227170	2749.658691
7325.515253	0.091622	0.227170	2831.202637
7325.516183	0.091080	0.227170	2915.907227
7326.488020	0.607284	0.263030	267.204926
7326.488891	0.279386	0.263030	510.550110
7326.489936	0.289025	0.263030	812.580872
7326.490824	0.286992	0.263030	1067.429932
7326.491697	0.278082	0.263030	1310.195801
7326.492668	0.261771	0.263030	1564.375732
7326.493622	0.247236	0.263030	1800.239136
7326.494548	0.332311	0.263030	2107.958984
7326.495430	0.090699	0.263030	2187.955811
7326.496458	0.091527	0.263030	2282.045654
7326.497353	0.092095	0.263030	2364.470459
7326.498222	0.092468	0.263030	2444.825439
7326.499108	0.091633	0.263030	2526.012451
7326.500128	0.091952	0.263030	2619.803467
7326.501010	0.091600	0.263030	2700.594971
7326.501880	0.091718	0.263030	2780.389160
7326.502883	0.091172	0.263030	2871.834473
7326.503794	0.091249	0.263030	2954.962158
7327.533068	0.551404	0.232991	275.150513
7327.533951	0.280470	0.232991	522.805542
7327.534877	0.288618	0.232991	790.065918
7327.535948	0.285670	0.232991	1096.018677
7327.536896	0.275035	0.232991	1356.752197
7327.537762	0.259259	0.232991	1581.270508
7327.538826	0.246731	0.232991	1843.792236
7327.539856	0.274193	0.232991	2126.211182
7327.540731	0.091271	0.232991	2206.072998
7327.541704	0.091805	0.232991	2295.399658
7327.542760	0.091534	0.232991	2392.060059
7327.543681	0.091780	0.232991	2476.589355
7327.544538	0.091615	0.232991	2555.103516
7327.545582	0.091077	0.232991	2650.187500
7327.546590	0.090952	0.232991	2741.867187
7327.547476	0.091707	0.232991	2823.119141
7327.548451	0.090835	0.232991	2911.683105
7327.549503	0.091077	0.232991	3007.495850
7328.530873	0.644154	0.257463	273.121338
7328.531883	0.280931	0.257463	556.862061
7328.532944	0.289230	0.257463	863.734802
7328.533840	0.286051	0.257463	1120.036499
7328.534762	0.275226	0.257463	1373.794678
7328.535844	0.255945	0.257463	1650.726929
7328.536793	0.246412	0.257463	1884.572266
7328.537660	0.300242	0.257463	2144.881836
7328.538701	0.090699	0.257463	2239.300049
7328.539721	0.091794	0.257463	2332.930420
7328.540599	0.092377	0.257463	2414.037109
7328.541532	0.091597	0.257463	2499.496826
7328.542580	0.091282	0.257463	2595.160156
7328.543510	0.091725	0.257463	2680.464355
7328.544372	0.091395	0.257463	2759.247070
7328.545411	0.090897	0.257463	2853.689209
7328.546435	0.091014	0.257463	2946.887939
7328.547306	0.091685	0.257463	3026.745117
7329.564088	0.644392	0.247267	271.289062
7329.565094	0.281213	0.247267	554.189697
7329.566181	0.289424	0.247267	868.793396
7329.567055	0.286245	0.247267	1118.971680
7329.567976	0.275435	0.247267	1372.646973
7329.569069	0.256055	0.247267	1652.514771
7329.570017	0.246515	0.247267	1886.210937
7329.570893	0.301659	0.247267	2150.464111
7329.571937	0.090743	0.247267	2245.200195
7329.572964	0.091901	0.247267	2339.582031
7329.573853	0.092238	0.247267	2421.581299
7329.574794	0.091454	0.247267	2507.639404
7329.575847	0.091282	0.247267	2603.759033
7329.576788	0.091890	0.247267	2690.227295
7329.577652	0.091392	0.247267	2769.189697
7329.578734	0.090831	0.247267	2867.469238
7329.579735	0.091176	0.247267	2958.735840
7329.580625	0.091029	0.247267	3039.751709
7330.572325	0.539213	0.239303	278.772949
7330.573256	0.282122	0.239303	541.428101
7330.574119	0.289526	0.239303	791.289368
7330.575176	0.286827	0.239303	1094.465942
7330.576206	0.274753	0.239303	1377.461914
7330.577088	0.258373	0.239303	1605.346680
7330.578071	0.246954	0.239303	1848.102783
7330.579135	0.229409	0.239303	2092.194092
7330.580049	0.091890	0.239303	2176.181152
7330.580907	0.091985	0.239303	2255.104248
7330.581979	0.091630	0.239303	2353.331299
7330.582990	0.091780	0.239303	2446.120605
7330.583863	0.092216	0.239303	2526.624756
7330.584832	0.091168	0.239303	2614.966797
7330.585897	0.091000	0.239303	2711.881592
7330.586801	0.091685	0.239303	2794.764404
7330.587670	0.091077	0.239303	2873.909912
7330.588753	0.090817	0.239303	2972.264404
7331.597756	0.644718	0.243005	273.360443
7331.598815	0.281360	0.243005	571.320557
7331.599771	0.288893	0.243005	847.502075
7331.600638	0.286348	0.243005	1095.765503
7331.601542	0.276185	0.243005	1345.437012
7331.602620	0.257545	0.243005	1623.070679
7331.603515	0.246628	0.243005	1843.803101
7331.604385	0.329780	0.243005	2130.711914
7331.605398	0.090681	0.243005	2222.572021
7331.606375	0.092278	0.243005	2312.727539
7331.607249	0.092084	0.243005	2393.208740
7331.608108	0.091692	0.243005	2471.972168
7331.609209	0.091476	0.243005	2572.687012
7331.610103	0.091454	0.243005	2654.446777
7331.610972	0.091967	0.243005	2734.365723
7331.611985	0.090996	0.243005	2826.544678
7331.612969	0.091088	0.243005	2916.174805
7331.613855	0.091176	0.243005	2996.956299
7332.611625	0.552466	0.243996	285.072357
7332.612651	0.282979	0.243996	575.408325
7332.613532	0.289288	0.243996	830.271362
7332.614489	0.285974	0.243996	1103.948608
7332.615559	0.273259	0.243996	1396.336060
7332.616481	0.256000	0.243996	1632.367798
7332.617353	0.246694	0.243996	1847.485229
7332.618403	0.264005	0.243996	2124.690674
7332.619416	0.091893	0.243996	2217.778564
7332.620305	0.092194	0.243996	2299.738770
7332.621276	0.091589	0.243996	2388.672119
7332.622334	0.091622	0.243996	2485.608643
7332.623243	0.091439	0.243996	2568.726807
7332.624105	0.091110	0.243996	2647.263184
7332.625193	0.090894	0.243996	2746.155273
7332.626188	0.091146	0.243996	2836.845703
7332.627080	0.091747	0.243996	2918.683838
7332.628057	0.090740	0.243996	3007.336670
7333.630402	0.630472	0.252399	270.472656
7333.631452	0.281682	0.252399	566.238892
7333.632489	0.289248	0.252399	866.189087
7333.633368	0.286047	0.252399	1117.624756
7333.634305	0.274882	0.252399	1375.188721
7333.635382	0.255615	0.252399	1650.486328
7333.636313	0.246471	0.252399	1879.950806
7333.637192	0.285908	0.252399	2131.264160
7333.638239	0.090791	0.252399	2226.322266
7333.639261	0.091787	0.252399	2320.128662
7333.640145	0.092135	0.252399	2401.575928
7333.641100	0.091461	0.252399	2488.921387
7333.642158	0.091150	0.252399	2585.357910
7333.643083	0.091392	0.252399	2669.895020
7333.643946	0.091476	0.252399	2748.838623
7333.645016	0.090864	0.252399	2846.063477
7333.646008	0.091077	0.252399	2936.411621
7333.646901	0.091461	0.252399	3018.086426
7334.651911	0.565309	0.237462	280.958466
7334.652849	0.281056	0.237462	544.588867
7334.653718	0.288688	0.237462	795.458557
7334.654778	0.285963	0.237462	1098.579468
7334.655806	0.274058	0.237462	1380.310669
7334.656698	0.257391	0.237462	1609.903809
7334.657670	0.246592	0.237462	1849.591064
7334.658727	0.260471	0.237462	2124.909180
7334.659654	0.091659	0.237462	2209.876953
7334.660519	0.091761	0.237462	2289.250732
7334.661593	0.091703	0.237462	2387.739746
7334.662584	0.091523	0.237462	2478.439453
7334.663464	0.091956	0.237462	2559.360352
7334.664467	0.091271	0.237462	2650.905029
7334.665510	0.091143	0.237462	2745.966797
7334.666410	0.091560	0.237462	2828.370850
7334.667265	0.091234	0.237462	2906.375977
7334.668355	0.090776	0.237462	3005.322266
7335.665177	0.566074	0.258043	285.301392
7335.666110	0.281748	0.258043	548.172302
7335.666976	0.289296	0.258043	798.702332
7335.668050	0.286567	0.258043	1106.475708
7335.669080	0.274530	0.258043	1389.241699
7335.669973	0.257963	0.258043	1619.602295
7335.670881	0.246808	0.258043	1843.703857
7335.671765	0.311807	0.258043	2119.340820
7335.672746	0.091117	0.258043	2208.726562
7335.673669	0.091666	0.258043	2293.334473
7335.674544	0.091725	0.258043	2373.593750
7335.675572	0.091450	0.258043	2467.604492
7335.676467	0.091893	0.258043	2549.849121
7335.677386	0.091362	0.258043	2633.811035
7335.678254	0.091545	0.258043	2713.272461
7335.679240	0.090948	0.258043	2802.947754
7335.680166	0.091208	0.258043	2887.406738
7335.681040	0.091212	0.258043	2967.126221
7336.690617	0.630678	0.229752	267.407257
7336.691670	0.282052	0.229752	564.408020
7336.692619	0.289457	0.229752	839.102539
7336.693506	0.286857	0.229752	1093.544434
7336.694438	0.276544	0.229752	1351.283569
7336.695497	0.257878	0.229752	1624.376831
7336.696392	0.246929	0.229752	1845.378052
7336.697265	0.300128	0.229752	2107.389893
7336.698315	0.090758	0.229752	2202.685791
7336.699277	0.091915	0.229752	2291.108398
7336.700151	0.091805	0.229752	2371.346436
7336.701035	0.091703	0.229752	2452.411865
7336.702111	0.091476	0.229752	2550.839844
7336.702991	0.091373	0.229752	2631.248291
7336.703852	0.091626	0.229752	2710.138184
7336.704868	0.090817	0.229752	2802.407959
7336.705825	0.091095	0.229752	2889.585937
7336.706729	0.091483	0.229752	2972.286621
7337.701396	0.566499	0.255566	283.816010
7337.702406	0.282916	0.255566	569.561462
7337.703286	0.289625	0.255566	824.431702
7337.704285	0.286249	0.255566	1110.394287
7337.705351	0.273636	0.255566	1402.090820
7337.706243	0.256648	0.255566	1631.020752
7337.707146	0.246753	0.255566	1853.838623
7337.708236	0.240809	0.255566	2116.320801
7337.709181	0.090974	0.255566	2202.291260
7337.710050	0.092135	0.255566	2282.356689
7337.711072	0.091538	0.255566	2375.908691
7337.712100	0.091410	0.255566	2469.878174
7337.712990	0.091600	0.255566	2551.402588
7337.713939	0.091161	0.255566	2637.914307
7337.714999	0.090916	0.255566	2734.284668
7337.715937	0.091366	0.255566	2819.985840
7337.716799	0.091154	0.255566	2898.560303
7337.717860	0.090604	0.255566	2994.691406
7338.727938	0.591456	0.238925	292.770874
7338.728946	0.282290	0.238925	577.319214
7338.729842	0.288944	0.238925	836.213135
7338.730857	0.285542	0.238925	1126.038208
7338.731911	0.272834	0.238925	1413.605713
7338.732803	0.256040	0.238925	1641.993408
7338.733704	0.246530	0.238925	1864.116577
7338.734806	0.261962	0.238925	2152.798340
7338.735749	0.091721	0.238925	2239.291504
7338.736613	0.092230	0.238925	2318.978516
7338.737653	0.091461	0.238925	2414.098145
7338.738676	0.091842	0.238925	2508.052490
7338.739558	0.092010	0.238925	2589.205811
7338.740486	0.091165	0.238925	2673.806396
7338.741545	0.090967	0.238925	2770.140137
7338.742480	0.091326	0.238925	2855.529541
7338.743339	0.091099	0.238925	2933.783203
7338.744400	0.090758	0.238925	3030.077393
7339.736504	0.644282	0.262853	271.887085
7339.737544	0.281565	0.262853	564.714600
7339.738582	0.289266	0.262853	864.973083
7339.739476	0.286132	0.262853	1120.774658
7339.740420	0.275182	0.262853	1380.546387
7339.741489	0.255655	0.262853	1653.842041
7339.742433	0.246226	0.262853	1886.279053
7339.743304	0.263558	0.262853	2115.838379
7339.744384	0.090714	0.262853	2213.809570
7339.745387	0.091578	0.262853	2305.662598
7339.746273	0.091769	0.262853	2386.969727
7339.747262	0.091304	0.262853	2477.269043
7339.748309	0.091348	0.262853	2572.910156
7339.749218	0.091366	0.262853	2655.961914
7339.750075	0.090992	0.262853	2733.942383
7339.751159	0.090787	0.262853	2832.355957
7339.752148	0.090905	0.262853	2922.260498
7339.753028	0.091066	0.262853	3002.398193
7340.765642	0.626484	0.235376	272.520721
7340.766520	0.279598	0.235376	518.008118
7340.767385	0.288798	0.235376	767.818054
7340.768440	0.287542	0.235376	1071.174316
7340.769344	0.278416	0.235376	1322.861938
7340.770217	0.263679	0.235376	1553.053833
7340.771140	0.248628	0.235376	1782.537354
7340.772153	0.345070	0.235376	2132.092773
7340.773085	0.090817	0.235376	2216.733887
7340.773948	0.092216	0.235376	2296.315918
7340.775014	0.091754	0.235376	2394.125732
7340.775894	0.092318	0.235376	2475.365723
7340.776754	0.091791	0.235376	2554.305664
7340.777644	0.091575	0.235376	2635.807129
7340.778688	0.091458	0.235376	2731.288818
7340.779582	0.091194	0.235376	2812.816162
7340.780456	0.091699	0.235376	2892.961182
7340.781436	0.090685	0.235376	2981.832275
7341.772746	0.589570	0.261169	255.873505
7341.773611	0.279192	0.261169	497.374481
7341.774704	0.288988	0.261169	813.238403
7341.775622	0.286351	0.261169	1076.108887
7341.776499	0.276903	0.261169	1318.952881
7341.777495	0.259966	0.261169	1577.878784
7341.778515	0.246793	0.261169	1829.607910
7341.779397	0.316124	0.261169	2108.429443
7341.780262	0.091589	0.261169	2187.654297
7341.781349	0.091425	0.261169	2287.032715
7341.782274	0.091696	0.261169	2371.851074
7341.783155	0.092157	0.261169	2453.041260
7341.784120	0.091212	0.261169	2541.061035
7341.785133	0.091578	0.261169	2633.829834
7341.786021	0.091498	0.261169	2715.079834
7341.786882	0.091241	0.261169	2793.638672
7341.787950	0.090879	0.261169	2890.697266
7341.788875	0.090967	0.261169	2974.841553
7342.801860	0.603461	0.234288	261.901917
7342.802734	0.279521	0.234288	506.203705
7342.803746	0.289124	0.234288	798.796753
7342.804803	0.286597	0.234288	1101.729492
7342.805697	0.276317	0.234288	1348.757080
7342.806591	0.259874	0.234288	1581.084717
7342.807687	0.246852	0.234288	1851.634277
7342.808639	0.231592	0.234288	2072.109619
7342.809497	0.090787	0.234288	2150.005127
7342.810544	0.091512	0.234288	2245.818604
7342.811571	0.091835	0.234288	2340.132812
7342.812451	0.091655	0.234288	2420.789551
7342.813388	0.091198	0.234288	2506.241699
7342.814464	0.091080	0.234288	2604.244141
7342.815405	0.091344	0.234288	2690.198730
7342.816265	0.090864	0.234288	2768.342041
7342.817307	0.090751	0.234288	2862.904297
7342.818328	0.090729	0.234288	2955.538330
7343.810091	0.634438	0.261781	339.424561
7343.811155	0.283271	0.261781	640.825439
7343.812086	0.289127	0.261781	910.002869
7343.812949	0.285582	0.261781	1156.460327
7343.814017	0.272871	0.261781	1447.886719
7343.815016	0.254103	0.261781	1701.735352
7343.815907	0.246522	0.261781	1921.386597
7343.816906	0.225571	0.261781	2146.732422
7343.817968	0.090974	0.261781	2243.346924
7343.818871	0.091842	0.261781	2326.280273
7343.819734	0.091219	0.261781	2405.002686
7343.820836	0.091304	0.261781	2505.619385
7343.821815	0.091208	0.261781	2594.912598
7343.822683	0.091406	0.261781	2674.253174
7343.823722	0.090806	0.261781	2768.600342
7343.824763	0.090842	0.261781	2863.167236
7343.825649	0.091260	0.261781	2944.023437
7343.826536	0.090861	0.261781	3024.616699
7344.837644	0.565551	0.238127	284.471924
7344.838568	0.281440	0.238127	544.522888
7344.839434	0.288951	0.238127	794.754822
7344.840529	0.285762	0.238127	1107.663940
7344.841538	0.273812	0.238127	1383.940552
7344.842434	0.257314	0.238127	1614.494263
7344.843403	0.246746	0.238127	1853.590698
7344.844461	0.248771	0.238127	2116.790039
7344.845373	0.090765	0.238127	2199.568115
7344.846233	0.091666	0.238127	2278.401123
7344.847340	0.091406	0.238127	2379.587891
7344.848320	0.091666	0.238127	2469.420898
7344.849209	0.091641	0.238127	2550.889404
7344.850208	0.090897	0.238127	2641.695801
7344.851261	0.091084	0.238127	2737.607178
7344.852144	0.091377	0.238127	2818.292969
7344.853062	0.091355	0.238127	2902.156738
7344.853919	0.090831	0.238127	2979.999268
7345.847290	0.647234	0.259840	318.439087
7345.848282	0.282261	0.259840	598.441772
7345.849163	0.289299	0.259840	853.314453
7345.850047	0.286915	0.259840	1106.947510
7345.851161	0.275076	0.259840	1413.381836
7345.852057	0.258534	0.259840	1645.028198
7345.852924	0.247196	0.259840	1859.347168
7345.853980	0.266356	0.259840	2140.619385
7345.854948	0.090806	0.259840	2228.519287
7345.855816	0.091989	0.259840	2308.365234
7345.856672	0.091692	0.259840	2386.853516
7345.857783	0.091534	0.259840	2488.548340
7345.858663	0.091531	0.259840	2569.095459
7345.859536	0.091410	0.259840	2648.896240
7345.860530	0.091117	0.259840	2739.466553
7345.861526	0.091263	0.259840	2830.364990
7345.862421	0.091329	0.259840	2912.104736
7345.863282	0.090787	0.259840	2990.272705
7346.873424	0.472661	0.236536	267.053528
7346.874481	0.283517	0.236536	566.730835
7346.875365	0.288860	0.236536	822.082947
7346.876296	0.285004	0.236536	1087.421387
7346.877373	0.271901	0.236536	1380.258301
7346.878318	0.254235	0.236536	1620.510010
7346.879193	0.246204	0.236536	1835.938232
7346.880249	0.225161	0.236536	2073.708496
7346.881271	0.091036	0.236536	2166.747559
7346.882160	0.091824	0.236536	2248.378906
7346.883119	0.091604	0.236536	2336.227051
7346.884181	0.091260	0.236536	2433.145020
7346.885100	0.091304	0.236536	2517.053223
7346.885961	0.091168	0.236536	2595.549072
7346.887042	0.090824	0.236536	2693.729736
7346.888020	0.090707	0.236536	2782.440918
7346.888911	0.091230	0.236536	2863.727295
7346.889898	0.090784	0.236536	2953.330811
7347.885510	0.617003	0.263522	265.928345
7347.886519	0.280836	0.263522	549.291992
7347.887579	0.289310	0.263522	855.960937
7347.888473	0.286047	0.263522	1111.687256
7347.889336	0.275442	0.263522	1349.393555
7347.890450	0.256359	0.263522	1634.977051
7347.891424	0.246581	0.263522	1875.146729
7347.892292	0.299425	0.263522	2135.047607
7347.893358	0.090894	0.263522	2231.940186
7347.894385	0.091630	0.263522	2326.043945
7347.895261	0.092380	0.263522	2406.969238
7347.896192	0.091794	0.263522	2492.429932
7347.897253	0.091216	0.263522	2589.209961
7347.898202	0.091575	0.263522	2676.114258
7347.899066	0.091198	0.263522	2754.908936
7347.900101	0.090890	0.263522	2848.979980
7347.901124	0.091168	0.263522	2942.245117
7347.902016	0.091578	0.263522	3023.933105
7348.908484	0.630919	0.246075	272.557068
7348.909352	0.279177	0.246075	514.882935
7348.910284	0.288552	0.246075	783.813599
7348.911290	0.287003	0.246075	1072.538818
7348.912178	0.278093	0.246075	1319.485596
7348.913045	0.263445	0.246075	1547.892334
7348.914040	0.248148	0.246075	1794.799805
7348.914950	0.296774	0.246075	2064.863770
7348.915877	0.090656	0.246075	2148.901367
7348.916747	0.091315	0.246075	2228.345215
7348.917783	0.092010	0.246075	2323.667969
7348.918684	0.091747	0.246075	2406.331787
7348.919558	0.091688	0.246075	2486.467285
7348.920526	0.091205	0.246075	2574.753662
7348.921477	0.091326	0.246075	2661.604492
7348.922400	0.091161	0.246075	2745.746094
7348.923264	0.091007	0.246075	2824.376221
7348.924310	0.090967	0.246075	2919.527588
7349.925303	0.644297	0.260621	271.248993
7349.926284	0.280730	0.260621	546.645142
7349.927351	0.289387	0.260621	855.421326
7349.928261	0.286219	0.260621	1115.881104
7349.929127	0.275577	0.260621	1354.531128
7349.930239	0.256099	0.260621	1639.312866
7349.931207	0.246628	0.260621	1878.049194
7349.932075	0.286110	0.260621	2126.392334
7349.933144	0.090732	0.260621	2223.385254
7349.934186	0.091802	0.260621	2319.042725
7349.935066	0.091967	0.260621	2399.973389
7349.935989	0.091362	0.260621	2484.300781
7349.937059	0.091062	0.260621	2581.737061
7349.937990	0.091318	0.260621	2666.754395
7349.938849	0.091230	0.260621	2745.121338
7349.939865	0.090839	0.260621	2837.413330
7349.940900	0.090857	0.260621	2931.450195
7349.941786	0.091348	0.260621	3012.384277
7350.943249	0.565986	0.245579	286.955078
7350.944261	0.283000	0.245579	573.351562
7350.945154	0.289530	0.245579	831.901855
7350.946125	0.286282	0.245579	1109.881348
7350.947188	0.273589	0.245579	1400.706299
7350.948104	0.256337	0.245579	1635.510742
7350.948968	0.246848	0.245579	1848.787598
7350.950064	0.244010	0.245579	2116.222656
7350.951047	0.090890	0.245579	2205.567383
7350.951927	0.091849	0.245579	2286.394775
7350.952926	0.091556	0.245579	2377.859619
7350.953989	0.091351	0.245579	2474.966064
7350.954871	0.091523	0.245579	2555.689697
7350.955735	0.091132	0.245579	2634.427490
7350.956825	0.090930	0.245579	2733.541504
7350.957783	0.091198	0.245579	2820.908691
7350.958639	0.091293	0.245579	2899.055176
7350.959679	0.090743	0.245579	2993.428223
7351.964621	0.603849	0.258921	265.693512
7351.965499	0.279569	0.258921	511.155151
7351.966360	0.288805	0.258921	759.816162
7351.967404	0.287278	0.258921	1059.734253
7351.968311	0.277965	0.258921	1311.848633
7351.969194	0.263057	0.258921	1544.127686
7351.970160	0.248295	0.258921	1783.980347
7351.971115	0.325803	0.258921	2095.122559
7351.972040	0.090850	0.258921	2179.158447
7351.972905	0.091520	0.258921	2258.322998
7351.973947	0.091644	0.258921	2353.816406
7351.974836	0.091670	0.258921	2435.311035
7351.975708	0.091736	0.258921	2515.304687
7351.976612	0.091102	0.258921	2597.661133
7351.977636	0.091333	0.258921	2691.186035
7351.978548	0.091296	0.258921	2774.448242
7351.979412	0.090853	0.258921	2852.945557
7351.980495	0.090930	0.258921	2951.422852
7352.976410	0.552089	0.243573	278.804749
7352.977425	0.282968	0.243573	566.016785
7352.978303	0.289395	0.243573	820.105164
7352.979304	0.286223	0.243573	1106.614502
7352.980356	0.273614	0.243573	1394.456909
7352.981257	0.256359	0.243573	1625.436035
7352.982119	0.246658	0.243573	1838.054932
7352.983213	0.254004	0.243573	2115.935059
7352.984175	0.090736	0.243573	2203.223145
7352.985051	0.092025	0.243573	2283.837158
7352.986033	0.091443	0.243573	2373.634033
7352.987075	0.091337	0.243573	2468.806885
7352.987976	0.091710	0.243573	2551.437744
7352.988839	0.091252	0.243573	2630.188477
7352.989941	0.090919	0.243573	2730.381348
7352.990909	0.090908	0.243573	2818.380371
7352.991777	0.091051	0.243573	2897.412598
7352.992863	0.090725	0.243573	2995.939941
7354.004919	0.644231	0.254184	271.865479
7354.005913	0.280781	0.254184	550.962036
7354.006979	0.289449	0.254184	859.515137
7354.007889	0.286282	0.254184	1120.031494
7354.008762	0.275306	0.254184	1360.374023
7354.009878	0.255688	0.254184	1645.722412
7354.010847	0.246383	0.254184	1884.467529
7354.011718	0.309851	0.254184	2154.347900
7354.012729	0.090765	0.254184	2246.111816
7354.013781	0.091937	0.254184	2342.829834
7354.014672	0.092314	0.254184	2425.082031
7354.015595	0.091392	0.254184	2509.436523
7354.016665	0.091205	0.254184	2607.025635
7354.017604	0.091355	0.254184	2692.807861
7354.018471	0.091190	0.254184	2771.869629
7354.019521	0.090758	0.254184	2867.165527
7354.020528	0.090710	0.254184	2958.510986
7354.021414	0.091007	0.254184	3039.143311
7355.008442	0.630688	0.251541	268.042572
7355.009492	0.281602	0.251541	563.724243
7355.010519	0.288940	0.251541	860.466064
7355.011413	0.285571	0.251541	1115.766846
7355.012391	0.274109	0.251541	1383.845337
7355.013453	0.254758	0.251541	1654.398682
7355.014373	0.246189	0.251541	1880.892578
7355.015245	0.282048	0.251541	2126.838623
7355.016346	0.090974	0.251541	2227.001221
7355.017310	0.091798	0.251541	2315.494629
7355.018239	0.091952	0.251541	2400.917969
7355.019159	0.091370	0.251541	2484.978027
7355.020026	0.091890	0.251541	2564.646240
7355.021020	0.091329	0.251541	2655.427490
7355.021938	0.091033	0.251541	2738.995605
7355.022804	0.091886	0.251541	2818.568848
7355.023815	0.091161	0.251541	2910.732422
7355.024687	0.091245	0.251541	2990.298096
7356.045239	0.657037	0.245833	277.269745
7356.046252	0.281016	0.245833	561.938599
7356.047236	0.289047	0.245833	846.360474
7356.048117	0.286366	0.245833	1098.648926
7356.048978	0.276467	0.245833	1336.687256
7356.050105	0.257607	0.245833	1627.010864
7356.051004	0.246658	0.245833	1848.756104
7356.051873	0.313564	0.245833	2121.243652
7356.052954	0.090667	0.245833	2219.254150
7356.053917	0.091791	0.245833	2307.648682
7356.054788	0.091718	0.245833	2387.534668
7356.055644	0.091381	0.245833	2465.756348
7356.056755	0.091143	0.245833	2567.015869
7356.057642	0.091432	0.245833	2648.115967
7356.058516	0.090894	0.245833	2727.556885
7356.059516	0.090842	0.245833	2818.399170
7356.060513	0.090985	0.245833	2909.111328
7356.061405	0.091029	0.245833	2990.309326
7357.041089	0.630839	0.263304	270.629761
7357.042054	0.279880	0.263304	540.714355
7357.043109	0.288878	0.263304	845.480835
7357.044043	0.285835	0.263304	1112.450684
7357.044910	0.275654	0.263304	1351.442993
7357.045994	0.256692	0.263304	1629.697021
7357.046996	0.246332	0.263304	1876.521484
7357.047893	0.275149	0.263304	2123.330078
7357.048859	0.090791	0.263304	2211.034180
7357.049922	0.091582	0.263304	2308.385986
7357.050837	0.091956	0.263304	2392.525391
7357.051698	0.091414	0.263304	2471.232422
7357.052792	0.091172	0.263304	2570.974365
7357.053775	0.091252	0.263304	2660.675537
7357.054660	0.091490	0.263304	2741.644531
7357.055659	0.090956	0.263304	2832.509277
7357.056707	0.091128	0.263304	2928.011230
7357.057589	0.091223	0.263304	3008.469971
7358.087618	0.630853	0.239634	268.743500
7358.088563	0.280020	0.239634	533.361938
7358.089618	0.289215	0.239634	838.483887
7358.090551	0.286571	0.239634	1105.854614
7358.091416	0.276683	0.239634	1345.185669
7358.092490	0.257780	0.239634	1622.040894
7358.093511	0.246581	0.239634	1873.799927
7358.094399	0.281913	0.239634	2124.138428
7358.095371	0.090707	0.239634	2212.305420
7358.096410	0.091648	0.239634	2307.527588
7358.097308	0.091923	0.239634	2390.073975
7358.098184	0.091549	0.239634	2470.270996
7358.099243	0.091230	0.239634	2566.884033
7358.100242	0.091256	0.239634	2658.048828
7358.101136	0.091637	0.239634	2739.972168
7358.102121	0.090989	0.239634	2829.596191
7358.103185	0.091055	0.239634	2926.478271
7358.104085	0.091542	0.239634	3008.865723
7359.073733	0.630868	0.273790	273.165802
7359.074606	0.279456	0.273790	517.130493
7359.075643	0.289142	0.273790	816.970581
7359.076679	0.286091	0.273790	1113.361206
7359.077578	0.275892	0.273790	1361.388428
7359.078530	0.259142	0.273790	1608.091431
7359.079594	0.246771	0.273790	1870.656006
7359.080530	0.276116	0.273790	2129.100342
7359.081393	0.090784	0.273790	2207.446777
7359.082476	0.091487	0.273790	2306.527100
7359.083473	0.091743	0.273790	2397.995117
7359.084363	0.092428	0.273790	2480.256104
7359.085343	0.091194	0.273790	2569.625977
7359.086392	0.091099	0.273790	2665.188477
7359.087295	0.091538	0.273790	2747.847412
7359.088153	0.091139	0.273790	2826.044678
7359.089242	0.090828	0.273790	2924.956055
7359.090238	0.091256	0.273790	3015.847168
7360.127427	0.631044	0.234792	273.872955
7360.128298	0.279203	0.234792	517.058655
7360.129245	0.288787	0.234792	790.539551
7360.130229	0.287406	0.234792	1073.347046
7360.131158	0.277866	0.234792	1331.484741
7360.132030	0.262991	0.234792	1560.812622
7360.133100	0.247321	0.234792	1825.445557
7360.133970	0.314407	0.234792	2098.979492
7360.134851	0.090890	0.234792	2179.053467
7360.135734	0.091531	0.234792	2259.875244
7360.136787	0.092106	0.234792	2356.862549
7360.137685	0.091901	0.234792	2439.389404
7360.138559	0.091593	0.234792	2519.441650
7360.139555	0.091512	0.234792	2610.588135
7360.140482	0.091311	0.234792	2695.233398
7360.141399	0.091252	0.234792	2778.911865
7360.142265	0.091018	0.234792	2857.733398
7360.143318	0.090978	0.234792	2953.532959
7361.106904	0.607687	0.278467	275.282104
7361.107781	0.279785	0.278467	520.653687
7361.108735	0.289065	0.278467	796.421631
7361.109788	0.286871	0.278467	1098.497192
7361.110672	0.277317	0.278467	1343.645264
7361.111534	0.262115	0.278467	1569.588867
7361.112597	0.247328	0.278467	1832.498413
7361.113536	0.310247	0.278467	2123.819824
7361.114407	0.090813	0.278467	2202.917969
7361.115335	0.091531	0.278467	2287.858398
7361.116390	0.091743	0.278467	2384.647461
7361.117289	0.091739	0.278467	2467.121338
7361.118153	0.091838	0.278467	2546.469727
7361.119205	0.091106	0.278467	2642.313232
7361.120156	0.091487	0.278467	2729.317139
7361.121031	0.091428	0.278467	2809.316895
7361.121935	0.090879	0.278467	2891.471436
7361.123023	0.090846	0.278467	2990.311768
7362.167222	0.643986	0.231057	271.117920
7362.168172	0.279822	0.231057	536.948608
7362.169240	0.289127	0.231057	845.736450
7362.170174	0.286014	0.231057	1112.873901
7362.171040	0.276211	0.231057	1352.072510
7362.172115	0.257120	0.231057	1628.476807
7362.173131	0.246292	0.231057	1878.708984
7362.174034	0.295052	0.231057	2145.141357
7362.175014	0.090743	0.231057	2234.069824
7362.176068	0.091567	0.231057	2330.581787
7362.176967	0.092197	0.231057	2413.467041
7362.177828	0.091780	0.231057	2492.489502
7362.178921	0.091099	0.231057	2592.060303
7362.179907	0.091263	0.231057	2682.046143
7362.180784	0.091117	0.231057	2761.955811
7362.181786	0.090989	0.231057	2853.126465
7362.182841	0.091113	0.231057	2949.250977
7362.183726	0.091183	0.231057	3029.947754
7363.141681	0.568462	0.282128	309.243286
7363.142742	0.283674	0.282128	610.221741
7363.143644	0.289486	0.282128	871.338196
7363.144521	0.285919	0.282128	1122.089355
7363.145638	0.272362	0.282128	1426.317871
7363.146613	0.254169	0.282128	1674.132324
7363.147486	0.246486	0.282128	1889.314209
7363.148542	0.233577	0.282128	2135.971191
7363.149575	0.091278	0.282128	2230.261475
7363.150461	0.091750	0.282128	2311.552490
7363.151408	0.091710	0.282128	2398.402100
7363.152466	0.091318	0.282128	2495.016846
7363.153391	0.091772	0.282128	2579.906250
7363.154255	0.091307	0.282128	2658.795898
7363.155317	0.090864	0.282128	2755.293701
7363.156330	0.091128	0.282128	2847.606201
7363.157206	0.091300	0.282128	2927.584961
7363.158191	0.090652	0.282128	3016.876953
7364.205597	1.331843	0.220757	700.549561
7364.206557	2.277568	0.220757	2887.015137
7364.207484	2.338660	0.220757	5054.952637
7364.208350	1.834263	0.220757	6643.424316
7364.209391	0.856216	0.220757	7534.745117
7364.210283	0.754464	0.220757	8207.727539
7364.211149	0.729617	0.220757	8839.575195
7364.212057	0.506821	0.220757	9299.768555
7364.213066	0.090582	0.220757	9391.166016
7364.213984	0.092128	0.220757	9475.739258
7364.214844	0.091696	0.220757	9554.597656
7364.215953	0.091465	0.220757	9656.032227
7364.216858	0.091545	0.220757	9738.880859
7364.217723	0.091150	0.220757	9817.725586
7364.218825	0.090956	0.220757	9917.958984
7364.219799	0.091260	0.220757	10006.845703
7364.220679	0.091428	0.220757	10087.302734
7364.221561	0.090747	0.220757	10167.341797
7365.177271	0.658143	0.290648	276.420197
7365.178185	0.279221	0.290648	531.628357
7365.179272	0.288776	0.290648	845.527466
7365.180173	0.286201	0.290648	1103.394775
7365.181041	0.276801	0.290648	1343.657715
7365.182083	0.258655	0.290648	1613.176025
7365.183056	0.246764	0.290648	1853.277344
7365.183935	0.316648	0.290648	2131.610840
7365.184819	0.091143	0.290648	2212.180908
7365.185917	0.091659	0.290648	2312.822510
7365.186796	0.092109	0.290648	2393.786621
7365.187654	0.092062	0.290648	2472.775635
7365.188676	0.091172	0.290648	2565.953369
7365.189635	0.091729	0.290648	2653.920898
7365.190520	0.091637	0.290648	2735.019531
7365.191520	0.090956	0.290648	2825.975342
7365.192573	0.091095	0.290648	2921.898437
7365.193460	0.091747	0.290648	3003.277832
7366.242783	0.535642	0.221732	242.110229
7366.243665	0.279686	0.221732	488.793549
7366.244660	0.288907	0.221732	776.256470
7366.245712	0.286047	0.221732	1077.178223
7366.246618	0.275468	0.221732	1326.751831
7366.247482	0.259006	0.221732	1550.533325
7366.248607	0.246500	0.221732	1827.846069
7366.249592	0.289446	0.221732	2112.950195
7366.250461	0.090996	0.221732	2192.025879
7366.251495	0.091432	0.221732	2286.566406
7366.252533	0.091941	0.221732	2382.000977
7366.253422	0.091893	0.221732	2463.694092
7366.254315	0.091241	0.221732	2545.172607
7366.255425	0.090824	0.221732	2645.987305
7366.256378	0.091252	0.221732	2732.950928
7366.257245	0.091088	0.221732	2811.923828
7366.258286	0.090864	0.221732	2906.513428
7366.259303	0.090773	0.221732	2998.829346
7367.214003	0.645480	0.284437	271.746979
7367.215104	0.282759	0.284437	583.064453
7367.216083	0.289471	0.284437	866.457031
7367.216967	0.286245	0.284437	1119.497681
7367.217988	0.274266	0.284437	1399.523682
7367.219053	0.255004	0.284437	1671.102539
7367.219953	0.246464	0.284437	1892.919800
7367.220879	0.272238	0.284437	2145.011719
7367.221963	0.090905	0.284437	2243.552246
7367.222911	0.091868	0.284437	2330.642822
7367.223777	0.092252	0.284437	2410.533203
7367.224826	0.091260	0.284437	2506.264648
7367.225844	0.091428	0.284437	2599.338623
7367.226734	0.092036	0.284437	2681.250732
7367.227676	0.090846	0.284437	2766.827637
7367.228722	0.090835	0.284437	2861.841064
7367.229650	0.091066	0.284437	2946.350098
7367.230508	0.091252	0.284437	3024.644775
7368.280518	0.605914	0.216362	262.360901
7368.281382	0.279500	0.216362	503.848450
7368.282447	0.289028	0.216362	811.663574
7368.283335	0.286886	0.216362	1066.418335
7368.284217	0.277910	0.216362	1311.535034
7368.285181	0.261910	0.216362	1564.016602
7368.286139	0.247434	0.216362	1801.058472
7368.287053	0.323214	0.216362	2096.476074
7368.287939	0.090981	0.216362	2177.085693
7368.288974	0.091395	0.216362	2271.679687
7368.289881	0.091882	0.216362	2355.016846
7368.290758	0.091919	0.216362	2435.629883
7368.291679	0.091366	0.216362	2519.777832
7368.292681	0.091545	0.216362	2611.506348
7368.293608	0.091454	0.216362	2696.284180
7368.294467	0.091604	0.216362	2774.971924
7368.295472	0.090919	0.216362	2866.345703
7368.296375	0.090886	0.216362	2948.416016
7369.250743	0.643510	0.285496	271.561005
7369.251795	0.282166	0.285496	568.399170
7369.252747	0.289384	0.285496	843.892334
7369.253628	0.286729	0.285496	1096.500122
7369.254592	0.276226	0.285496	1362.781616
7369.255638	0.257417	0.285496	1632.039795
7369.256539	0.246881	0.285496	1854.479736
7369.257414	0.314531	0.285496	2129.694580
7369.258473	0.090721	0.285496	2225.768555
7369.259420	0.092175	0.285496	2313.058594
7369.260296	0.092560	0.285496	2394.141113
7369.261240	0.091619	0.285496	2480.629150
7369.262278	0.091545	0.285496	2575.653320
7369.263156	0.091827	0.285496	2656.277832
7369.264014	0.091498	0.285496	2734.782959
7369.265074	0.090780	0.285496	2831.009766
7369.266017	0.091362	0.285496	2917.164307
7369.266880	0.091392	0.285496	2996.035156
7370.316729	0.644187	0.220568	273.135315
7370.317743	0.281071	0.220568	558.140869
7370.318796	0.289131	0.220568	862.595703
7370.319691	0.285828	0.220568	1118.411377
7370.320629	0.274768	0.220568	1376.143799
7370.321709	0.255447	0.220568	1652.026367
7370.322655	0.246328	0.220568	1885.052734
7370.323531	0.281506	0.220568	2131.652344
7370.324599	0.090857	0.220568	2228.687500
7370.325621	0.091959	0.220568	2322.669922
7370.326510	0.092003	0.220568	2404.460693
7370.327471	0.091296	0.220568	2492.196533
7370.328508	0.091176	0.220568	2586.745605
7370.329419	0.091842	0.220568	2670.413818
7370.330283	0.091252	0.220568	2749.255859
7370.331359	0.090758	0.220568	2846.911621
7370.332353	0.090839	0.220568	2937.205322
7370.333228	0.091000	0.220568	3016.830078
7371.288075	0.579851	0.281282	292.244934
7371.289048	0.282074	0.281282	566.702881
7371.289917	0.289175	0.281282	817.995789
7371.291062	0.285458	0.281282	1144.844971
7371.292102	0.272274	0.281282	1428.010132
7371.292998	0.255007	0.281282	1656.496704
7371.293957	0.246544	0.281282	1892.932617
7371.295023	0.226908	0.281282	2134.816406
7371.295959	0.091329	0.281282	2220.300781
7371.296822	0.092168	0.281282	2299.841797
7371.297904	0.091447	0.281282	2398.786865
7371.298902	0.091611	0.281282	2490.215088
7371.299781	0.091729	0.281282	2570.844482
7371.300767	0.091201	0.281282	2660.768799
7371.301820	0.091022	0.281282	2756.614746
7371.302717	0.091505	0.281282	2838.694824
7371.303574	0.091025	0.281282	2916.703613
7371.304650	0.090725	0.281282	3014.323730
7372.354095	0.554978	0.221555	301.353058
7372.355155	0.283759	0.221555	602.137085
7372.356059	0.289365	0.221555	863.723267
7372.356923	0.285850	0.221555	1110.697266
7372.358024	0.272798	0.221555	1411.047729
7372.358990	0.254894	0.221555	1657.275146
7372.359853	0.246628	0.221555	1870.115479
7372.360884	0.232734	0.221555	2110.064697
7372.361918	0.091066	0.221555	2204.226562
7372.362799	0.091948	0.221555	2285.232910
7372.363704	0.091681	0.221555	2368.204102
7372.364790	0.091296	0.221555	2467.352051
7372.365734	0.091692	0.221555	2553.909180
7372.366594	0.091300	0.221555	2632.427246
7372.367619	0.090905	0.221555	2725.604492
7372.368654	0.091018	0.221555	2819.808105
7372.369543	0.091047	0.221555	2900.749268
7372.370481	0.090901	0.221555	2986.014404
7373.324809	0.565594	0.278857	279.969269
7373.325726	0.281360	0.278857	537.976257
7373.326597	0.288926	0.278857	789.630615
7373.327677	0.286088	0.278857	1098.605225
7373.328689	0.274145	0.278857	1376.040527
7373.329582	0.257900	0.278857	1606.345581
7373.330557	0.246892	0.278857	1847.065308
7373.331628	0.244534	0.278857	2108.960937
7373.332540	0.091055	0.278857	2192.002930
7373.333401	0.091787	0.278857	2271.031738
7373.334482	0.091476	0.278857	2369.916992
7373.335475	0.091615	0.278857	2460.890625
7373.336365	0.091582	0.278857	2542.398682
7373.337359	0.090985	0.278857	2632.837891
7373.338409	0.091018	0.278857	2728.406738
7373.339289	0.091520	0.278857	2808.944092
7373.340147	0.091124	0.278857	2887.128662
7373.341251	0.090769	0.278857	2987.337646
7374.390303	0.647142	0.221059	339.102570
7374.391357	0.283572	0.221059	637.987183
7374.392288	0.289669	0.221059	907.669189
7374.393151	0.286121	0.221059	1154.591309
7374.394210	0.273435	0.221059	1444.159058
7374.395232	0.254447	0.221059	1704.203857
7374.396111	0.246427	0.221059	1920.813232
7374.397088	0.233507	0.221059	2148.949707
7374.398142	0.090934	0.221059	2244.793945
7374.399061	0.091970	0.221059	2329.314453
7374.399930	0.091864	0.221059	2409.144287
7374.401010	0.091249	0.221059	2507.692871
7374.401996	0.091747	0.221059	2598.155273
7374.402890	0.091615	0.221059	2680.059082
7374.403882	0.090916	0.221059	2770.247314
7374.404936	0.091095	0.221059	2866.261475
7374.405835	0.091575	0.221059	2948.587158
7374.406695	0.090890	0.221059	3026.752441
7375.361055	1.222815	0.288074	627.304077
7375.362020	2.271369	0.288074	2819.174805
7375.362884	2.343574	0.288074	4844.022949
7375.363936	1.665172	0.288074	6595.784180
7375.364967	0.817925	0.288074	7439.064453
7375.365852	0.749652	0.288074	8102.506348
7375.366785	0.726903	0.288074	8780.707031
7375.367866	0.352921	0.288074	9162.214844
7375.368795	0.091421	0.288074	9247.144531
7375.369654	0.092080	0.288074	9326.241211
7375.370712	0.091428	0.288074	9422.972656
7375.371735	0.091615	0.288074	9516.694336
7375.372602	0.092168	0.288074	9596.603516
7375.373556	0.091033	0.288074	9683.449219
7375.374610	0.091132	0.288074	9779.501953
7375.375534	0.091230	0.288074	9863.798828
7375.376406	0.091179	0.288074	9943.306641
7375.377473	0.090718	0.288074	10040.102539
7376.427444	0.648182	0.220072	272.236572
7376.428424	0.280734	0.220072	547.355530
7376.429331	0.289076	0.220072	809.547363
7376.430214	0.287428	0.220072	1063.346313
7376.431205	0.277621	0.220072	1338.468506
7376.432141	0.261218	0.220072	1582.968750
7376.433065	0.247650	0.220072	1811.797485
7376.433945	0.323613	0.220072	2096.577148
7376.434905	0.090604	0.220072	2183.557129
7376.435850	0.091450	0.220072	2269.977539
7376.436715	0.092223	0.220072	2349.750244
7376.437609	0.091696	0.220072	2431.726074
7376.438603	0.091403	0.220072	2522.580322
7376.439521	0.091095	0.220072	2606.205566
7376.440398	0.091293	0.220072	2686.269287
7376.441466	0.091194	0.220072	2783.664307
7376.442363	0.090938	0.220072	2865.235352
7376.443235	0.090916	0.220072	2944.513672
7377.398266	0.551012	0.293327	261.179657
7377.399142	0.280723	0.293327	507.092712
7377.400056	0.289332	0.293327	771.542419
7377.400934	0.287937	0.293327	1024.351074
7377.401929	0.278302	0.293327	1301.261475
7377.402862	0.262288	0.293327	1545.975830
7377.403738	0.248108	0.293327	1763.318359
7377.404772	0.324265	0.293327	2098.608398
7377.405674	0.091000	0.293327	2180.690186
7377.406550	0.092413	0.293327	2261.644287
7377.407485	0.091736	0.293327	2347.417236
7377.408494	0.091864	0.293327	2440.107910
7377.409416	0.091403	0.293327	2524.381104
7377.410280	0.091802	0.293327	2603.697754
7377.411338	0.090992	0.293327	2699.967773
7377.412206	0.091340	0.293327	2779.251221
7377.413079	0.090897	0.293327	2858.604492
7377.413943	0.090820	0.293327	2937.073242
7378.462656	0.630938	0.225426	268.779388
7378.463589	0.279811	0.225426	529.842896
7378.464636	0.289197	0.225426	832.631958
7378.465522	0.286714	0.225426	1086.660400
7378.466446	0.276654	0.225426	1342.288818
7378.467516	0.257684	0.225426	1618.010986
7378.468462	0.246570	0.225426	1851.265991
7378.469334	0.304790	0.225426	2117.042969
7378.470389	0.090637	0.225426	2212.665283
7378.471413	0.091956	0.225426	2306.827881
7378.472288	0.092340	0.225426	2387.625488
7378.473243	0.091659	0.225426	2475.159668
7378.474293	0.091168	0.225426	2570.886230
7378.475220	0.091271	0.225426	2655.494141
7378.476088	0.091003	0.225426	2734.485107
7378.477141	0.090806	0.225426	2830.103516
7378.478151	0.091091	0.225426	2922.105713
7378.479044	0.091014	0.225426	3003.381592
7379.435965	0.645026	0.285073	273.490875
7379.437041	0.282312	0.285073	577.258606
7379.438055	0.289427	0.285073	870.738037
7379.438937	0.286157	0.285073	1123.128662
7379.439925	0.274376	0.285073	1394.212402
7379.440986	0.254857	0.285073	1664.615845
7379.441901	0.246522	0.285073	1890.183594
7379.442770	0.279379	0.285073	2132.963623
7379.443867	0.090791	0.285073	2232.561279
7379.444858	0.091600	0.285073	2323.337158
7379.445732	0.092113	0.285073	2403.843994
7379.446733	0.091432	0.285073	2495.367187
7379.447797	0.091296	0.285073	2592.506592
7379.448682	0.091652	0.285073	2673.618164
7379.449556	0.090956	0.285073	2753.113525
7379.450657	0.090835	0.285073	2853.122803
7379.451614	0.091172	0.285073	2940.374268
7379.452478	0.091282	0.285073	3019.241699
7380.497904	0.578632	0.236032	277.164520
7380.498777	0.280243	0.236032	521.816589
7380.499736	0.288871	0.236032	798.843750
7380.500800	0.286007	0.236032	1103.155273
7380.501737	0.275244	0.236032	1361.059082
7380.502608	0.259193	0.236032	1586.816284
7380.503688	0.246779	0.236032	1853.337158
7380.504704	0.271197	0.236032	2128.873779
7380.505592	0.091000	0.236032	2209.681641
7380.506579	0.091527	0.236032	2300.018799
7380.507641	0.091644	0.236032	2397.344971
7380.508545	0.091578	0.236032	2480.131836
7380.509403	0.091340	0.236032	2558.501953
7380.510498	0.091007	0.236032	2658.154785
7380.511470	0.091318	0.236032	2746.916260
7380.512336	0.091154	0.236032	2825.855225
7380.513410	0.090773	0.236032	2923.345215
7380.514448	0.090864	0.236032	3017.662354
7381.474759	0.631216	0.286926	275.210114
7381.475628	0.279291	0.286926	517.913818
7381.476668	0.289178	0.286926	818.659424
7381.477704	0.286282	0.286926	1115.247314
7381.478593	0.276141	0.286926	1360.736938
7381.479527	0.259596	0.286926	1603.199585
7381.480596	0.246537	0.286926	1866.747559
7381.481537	0.280437	0.286926	2130.638672
7381.482395	0.090908	0.286926	2208.637939
7381.483454	0.091384	0.286926	2305.413818
7381.484464	0.091575	0.286926	2397.904297
7381.485334	0.091901	0.286926	2477.857910
7381.486289	0.091311	0.286926	2565.060059
7381.487332	0.091011	0.286926	2659.984375
7381.488255	0.091516	0.286926	2744.453857
7381.489124	0.090989	0.286926	2823.523193
7381.490180	0.090857	0.286926	2919.468018
7381.491190	0.091003	0.286926	3011.381348
7382.532022	0.642740	0.239114	269.950989
7382.533012	0.280778	0.239114	547.920776
7382.534081	0.289435	0.239114	857.326599
7382.534990	0.286113	0.239114	1117.403564
7382.535862	0.275453	0.239114	1357.598511
7382.536978	0.255978	0.239114	1643.269775
7382.537946	0.246614	0.239114	1881.991943
7382.538819	0.259116	0.239114	2108.200439
7382.539910	0.090773	0.239114	2207.233398
7382.540926	0.091630	0.239114	2300.329102
7382.541811	0.091699	0.239114	2381.482910
7382.542733	0.091498	0.239114	2465.843994
7382.543786	0.091135	0.239114	2561.809326
7382.544726	0.091685	0.239114	2647.992920
7382.545586	0.091014	0.239114	2726.265381
7382.546641	0.090751	0.239114	2822.007324
7382.547658	0.090798	0.239114	2914.349121
7382.548534	0.091088	0.239114	2994.141846
7383.515575	0.644949	0.278833	272.168396
7383.516674	0.282968	0.278833	583.149719
7383.517682	0.289735	0.278833	875.202698
7383.518581	0.286395	0.278833	1132.671997
7383.519564	0.274515	0.278833	1402.520630
7383.520631	0.254769	0.278833	1674.359497
7383.521544	0.246390	0.278833	1899.313965
7383.522413	0.276174	0.278833	2139.309326
7383.523517	0.090886	0.278833	2239.647705
7383.524468	0.092249	0.278833	2327.375977
7383.525342	0.092051	0.278833	2407.828369
7383.526351	0.091439	0.278833	2500.090576
7383.527409	0.091069	0.278833	2596.441895
7383.528284	0.091260	0.278833	2676.294189
7383.529148	0.090927	0.278833	2754.854736
7383.530234	0.090791	0.278833	2853.453857
7383.531203	0.091176	0.278833	2941.802979
7383.532063	0.091099	0.278833	3020.147705
7384.564672	0.645619	0.243602	279.552979
7384.565548	0.279155	0.243602	524.093018
7384.566531	0.288878	0.243602	808.060303
7384.567548	0.286769	0.243602	1099.704224
7384.568441	0.277130	0.243602	1347.181396
7384.569309	0.261526	0.243602	1574.185791
7384.570397	0.247006	0.243602	1842.927856
7384.571322	0.308390	0.243602	2128.188477
7384.572188	0.091143	0.243602	2207.117920
7384.573180	0.091494	0.243602	2297.880127
7384.574194	0.091904	0.243602	2391.071045
7384.575065	0.091780	0.243602	2471.011230
7384.575928	0.091692	0.243602	2550.141357
7384.576982	0.091168	0.243602	2646.232666
7384.577915	0.091458	0.243602	2731.562500
7384.578794	0.091344	0.243602	2811.853760
7384.579759	0.090872	0.243602	2899.544922
7384.580771	0.090732	0.243602	2991.366211
7385.555383	0.644597	0.280441	270.086182
7385.556439	0.281602	0.280441	567.457397
7385.557461	0.289105	0.280441	862.922974
7385.558354	0.285791	0.280441	1118.134277
7385.559344	0.274197	0.280441	1389.589111
7385.560403	0.254857	0.280441	1659.482910
7385.561323	0.246145	0.280441	1885.936279
7385.562197	0.244790	0.280441	2099.882812
7385.563309	0.090754	0.280441	2200.801758
7385.564288	0.091765	0.280441	2290.639893
7385.565155	0.091992	0.280441	2370.397217
7385.566256	0.091238	0.280441	2470.850098
7385.567290	0.091410	0.280441	2565.367920
7385.568178	0.091399	0.280441	2646.530273
7385.569104	0.091062	0.280441	2730.853760
7385.570165	0.090813	0.280441	2827.206299
7385.571103	0.090916	0.280441	2912.485107
7385.571969	0.090923	0.280441	2991.224365
7386.597339	0.577328	0.251831	262.684204
7386.598223	0.279679	0.251831	509.920410
7386.599193	0.288629	0.251831	789.890686
7386.600252	0.286051	0.251831	1092.818726
7386.601180	0.275464	0.251831	1348.449219
7386.602050	0.259259	0.251831	1574.004639
7386.603154	0.246757	0.251831	1846.423950
7386.604144	0.269432	0.251831	2113.162109
7386.605030	0.091567	0.251831	2194.290771
7386.606035	0.091505	0.251831	2286.253418
7386.607085	0.091611	0.251831	2382.445312
7386.607965	0.091996	0.251831	2463.401611
7386.608830	0.091348	0.251831	2542.417236
7386.609934	0.090981	0.251831	2642.860840
7386.610891	0.091132	0.251831	2730.073730
7386.611749	0.091575	0.251831	2808.644775
7386.612776	0.090776	0.251831	2901.872070
7386.613839	0.090989	0.251831	2998.593018
7387.597275	0.572073	0.264545	260.293091
7387.598149	0.279628	0.264545	504.687683
7387.599125	0.288893	0.264545	786.647095
7387.600195	0.286198	0.264545	1092.878418
7387.601110	0.275676	0.264545	1345.122192
7387.601980	0.259384	0.264545	1570.785889
7387.603089	0.246647	0.264545	1844.317139
7387.604060	0.272794	0.264545	2109.200195
7387.604936	0.091106	0.264545	2189.009033
7387.605950	0.091425	0.264545	2281.713623
7387.606995	0.091725	0.264545	2377.566162
7387.607885	0.091926	0.264545	2459.380615
7387.608765	0.091447	0.264545	2539.853516
7387.609854	0.091007	0.264545	2638.960205
7387.610811	0.091077	0.264545	2726.120605
7387.611673	0.091472	0.264545	2804.969727
7387.612719	0.090743	0.264545	2899.887207
7387.613748	0.091201	0.264545	2993.733154
7388.629539	0.566550	0.258901	291.773376
7388.630550	0.282935	0.258901	577.820190
7388.631430	0.289288	0.258901	832.393921
7388.632438	0.285923	0.258901	1120.604126
7388.633506	0.273025	0.258901	1412.194702
7388.634403	0.255710	0.258901	1641.567017
7388.635266	0.246584	0.258901	1854.369385
7388.636395	0.233346	0.258901	2117.816895
7388.637361	0.091267	0.258901	2205.980957
7388.638222	0.091750	0.258901	2284.978027
7388.639241	0.091447	0.258901	2378.162109
7388.640280	0.091549	0.258901	2473.281494
7388.641171	0.091703	0.258901	2554.988770
7388.642091	0.091128	0.258901	2638.826416
7388.643169	0.090923	0.258901	2736.841309
7388.644116	0.090784	0.258901	2822.813477
7388.644984	0.091208	0.258901	2901.982422
7388.646039	0.090656	0.258901	2997.624023
7389.637579	0.589449	0.261769	258.768311
7389.638459	0.279390	0.261769	504.631195
7389.639333	0.288461	0.261769	756.745850
7389.640309	0.287190	0.261769	1037.043213
7389.641240	0.278221	0.261769	1296.067383
7389.642121	0.263492	0.261769	1528.204224
7389.643064	0.248427	0.261769	1762.470459
7389.644021	0.329323	0.261769	2077.632080
7389.644952	0.090791	0.261769	2162.158447
7389.645833	0.091630	0.261769	2242.884277
7389.646857	0.091729	0.261769	2336.814209
7389.647753	0.091956	0.261769	2419.206299
7389.648628	0.091703	0.261769	2499.446289
7389.649537	0.091362	0.261769	2582.494629
7389.650547	0.091509	0.261769	2674.918457
7389.651470	0.091304	0.261769	2759.191895
7389.652345	0.091520	0.261769	2839.271729
7389.653347	0.090868	0.261769	2930.321289
7390.663192	0.566045	0.257958	285.852692
7390.664105	0.281514	0.257958	542.874634
7390.664979	0.289186	0.257958	795.623047
7390.666001	0.286736	0.257958	1088.666992
7390.667008	0.275105	0.257958	1365.697754
7390.667885	0.259102	0.257958	1592.929810
7390.668755	0.247262	0.257958	1808.047729
7390.669860	0.263342	0.257958	2099.041016
7390.670768	0.090791	0.257958	2181.479248
7390.671651	0.092069	0.257958	2262.776367
7390.672630	0.091487	0.257958	2352.342041
7390.673631	0.091772	0.257958	2444.206299
7390.674517	0.091458	0.257958	2525.237549
7390.675376	0.091322	0.257958	2603.683105
7390.676464	0.091069	0.257958	2702.766602
7390.677382	0.091168	0.257958	2786.458984
7390.678255	0.090905	0.257958	2865.818604
7390.679244	0.090813	0.257958	2955.632568
7391.677885	0.644564	0.252214	272.006104
7391.678929	0.281733	0.252214	566.135803
7391.679970	0.289666	0.252214	867.677612
7391.680859	0.286285	0.252214	1122.185303
7391.681779	0.275171	0.252214	1375.342529
7391.682873	0.255802	0.252214	1655.189941
7391.683818	0.246595	0.252214	1888.222656
7391.684690	0.267290	0.252214	2121.299561
7391.685733	0.090780	0.252214	2215.983154
7391.686769	0.091875	0.252214	2311.165771
7391.687642	0.092054	0.252214	2391.529297
7391.688598	0.091644	0.252214	2479.141113
7391.689652	0.091201	0.252214	2575.267090
7391.690587	0.091311	0.252214	2660.642822
7391.691452	0.091212	0.252214	2739.541260
7391.692517	0.090791	0.252214	2836.233643
7391.693525	0.090813	0.252214	2927.773193
7391.694413	0.091036	0.252214	3008.613525
7392.696325	0.593137	0.268078	295.382324
7392.697241	0.280774	0.268078	552.571289
7392.698108	0.288680	0.268078	802.857178
7392.699217	0.285743	0.268078	1119.746582
7392.700214	0.274017	0.268078	1392.941895
7392.701108	0.257578	0.268078	1623.216675
7392.702101	0.246584	0.268078	1868.075073
7392.703155	0.230643	0.268078	2111.173096
7392.704039	0.091066	0.268078	2191.675049
7392.704901	0.091560	0.268078	2270.599854
7392.706017	0.091388	0.268078	2372.588867
7392.706968	0.091813	0.268078	2459.902832
7392.707830	0.091458	0.268078	2538.739258
7392.708858	0.090959	0.268078	2632.245605
7392.709885	0.091088	0.268078	2725.792725
7392.710772	0.091249	0.268078	2806.730469
7392.711685	0.090747	0.268078	2889.582520
7392.712762	0.090645	0.268078	2987.206787
7393.717697	0.616868	0.249004	265.869965
7393.718729	0.281726	0.249004	556.611267
7393.719778	0.289523	0.249004	860.320557
7393.720659	0.286293	0.249004	1112.544434
7393.721577	0.275482	0.249004	1365.437012
7393.722665	0.255985	0.249004	1643.948853
7393.723616	0.246295	0.249004	1878.175537
7393.724488	0.277573	0.249004	2120.219482
7393.725545	0.090864	0.249004	2216.262939
7393.726563	0.091534	0.249004	2309.445068
7393.727442	0.091967	0.249004	2390.283691
7393.728391	0.091458	0.249004	2477.076904
7393.729459	0.091271	0.249004	2574.553955
7393.730375	0.091307	0.249004	2658.191406
7393.731245	0.091099	0.249004	2737.447266
7393.732282	0.090765	0.249004	2831.571045
7393.733304	0.091172	0.249004	2924.748779
7393.734193	0.091436	0.249004	3006.034912
7394.730941	0.630553	0.270301	269.876678
7394.731945	0.281488	0.270301	552.490662
7394.733010	0.289501	0.270301	860.808960
7394.733899	0.286157	0.270301	1115.202759
7394.734829	0.275032	0.270301	1370.982300
7394.735912	0.255293	0.270301	1647.464600
7394.736867	0.246584	0.270301	1882.952759
7394.737742	0.285436	0.270301	2132.708984
7394.738813	0.090883	0.270301	2230.044189
7394.739827	0.091633	0.270301	2322.960449
7394.740718	0.091868	0.270301	2404.814453
7394.741677	0.091443	0.270301	2492.508057
7394.742742	0.091135	0.270301	2589.567139
7394.743661	0.091362	0.270301	2673.529053
7394.744522	0.091176	0.270301	2752.031250
7394.745585	0.090751	0.270301	2848.499268
7394.746582	0.090791	0.270301	2939.017822
7394.747463	0.091055	0.270301	3019.237061
7395.756496	0.565020	0.245914	251.433701
7395.757375	0.279423	0.245914	497.046173
7395.758251	0.288402	0.245914	749.686401
7395.759271	0.286820	0.245914	1042.242920
7395.760198	0.277181	0.245914	1299.190063
7395.761120	0.261680	0.245914	1540.458740
7395.761983	0.247859	0.245914	1754.360962
7395.763016	0.309357	0.245914	2073.926514
7395.763918	0.090487	0.245914	2155.545898
7395.764794	0.091575	0.245914	2235.765381
7395.765732	0.091798	0.245914	2321.872070
7395.766708	0.091564	0.245914	2411.238281
7395.767621	0.091630	0.245914	2494.896240
7395.768497	0.091688	0.245914	2575.215088
7395.769541	0.090824	0.245914	2670.035400
7395.770436	0.090981	0.245914	2751.463867
7395.771310	0.091084	0.245914	2831.071289
7395.772191	0.090795	0.245914	2911.061523
7396.765726	0.538564	0.276195	274.667877
7396.766666	0.282100	0.276195	539.841492
7396.767549	0.289343	0.276195	795.331604
7396.768514	0.286512	0.276195	1071.816162
7396.769552	0.274709	0.276195	1356.964600
7396.770452	0.258094	0.276195	1589.249634
7396.771320	0.247017	0.276195	1803.660034
7396.772397	0.259175	0.276195	2082.791260
7396.773349	0.090868	0.276195	2169.297607
7396.774219	0.091600	0.276195	2248.989990
7396.775163	0.091619	0.276195	2335.478027
7396.776200	0.091578	0.276195	2430.444824
7396.777082	0.091805	0.276195	2511.417236
7396.777942	0.091018	0.276195	2589.692871
7396.778991	0.090945	0.276195	2685.093994
7396.779938	0.090846	0.276195	2771.125000
7396.780802	0.091388	0.276195	2850.084229
7396.781706	0.090831	0.276195	2932.195801
7397.794887	0.529966	0.244967	299.430695
7397.795956	0.283989	0.244967	603.015198
7397.796847	0.289519	0.244967	860.976685
7397.797714	0.285857	0.244967	1108.814697
7397.798819	0.272552	0.244967	1409.985229
7397.799786	0.254451	0.244967	1656.039062
7397.800655	0.246537	0.244967	1870.279541
7397.801714	0.232434	0.244967	2116.427246
7397.802746	0.091198	0.244967	2210.542969
7397.803618	0.091996	0.244967	2290.763428
7397.804537	0.091721	0.244967	2375.055176
7397.805596	0.091150	0.244967	2471.583008
7397.806544	0.091307	0.244967	2558.142334
7397.807413	0.091121	0.244967	2637.326172
7397.808441	0.090809	0.244967	2730.678223
7397.809461	0.090637	0.244967	2823.128174
7397.810354	0.091333	0.244967	2904.688477
7397.811301	0.090454	0.244967	2990.348633
7398.801928	0.579390	0.274986	289.694824
7398.802910	0.282026	0.274986	566.644775
7398.803806	0.288988	0.274986	825.578003
7398.804799	0.285872	0.274986	1109.448486
7398.805852	0.273175	0.274986	1397.101807
7398.806760	0.256007	0.274986	1629.556274
7398.807650	0.246530	0.274986	1848.967529
7398.808750	0.243560	0.274986	2116.883057
7398.809701	0.091058	0.274986	2203.479492
7398.810563	0.091923	0.274986	2282.716797
7398.811596	0.091322	0.274986	2377.052490
7398.812618	0.091417	0.274986	2470.480957
7398.813497	0.091707	0.274986	2551.091064
7398.814413	0.091058	0.274986	2634.500488
7398.815494	0.090941	0.274986	2732.807861
7398.816420	0.091267	0.274986	2817.321289
7398.817289	0.091106	0.274986	2896.492432
7398.818311	0.090699	0.274986	2989.187256
7399.831594	0.525872	0.245003	274.504974
7399.832617	0.283271	0.245003	564.291748
7399.833501	0.289288	0.245003	820.022583
7399.834487	0.285736	0.245003	1101.758301
7399.835534	0.272703	0.245003	1387.277954
7399.836457	0.255388	0.245003	1623.001221
7399.837319	0.246691	0.245003	1835.648560
7399.838405	0.242992	0.245003	2099.537842
7399.839408	0.090992	0.245003	2190.803223
7399.840285	0.092596	0.245003	2272.010254
7399.841255	0.091406	0.245003	2360.674316
7399.842313	0.091260	0.245003	2457.227051
7399.843211	0.091461	0.245003	2539.359131
7399.844075	0.091337	0.245003	2618.273926
7399.845168	0.090842	0.245003	2717.564453
7399.846163	0.090886	0.245003	2807.996338
7399.847054	0.091219	0.245003	2889.272949
7399.848047	0.090670	0.245003	2979.308350
7400.839174	0.551202	0.271679	266.781982
7400.840058	0.279891	0.271679	514.205933
7400.840929	0.288336	0.271679	765.346741
7400.841896	0.286575	0.271679	1042.464478
7400.842855	0.276746	0.271679	1307.863525
7400.843778	0.260856	0.271679	1548.633301
7400.844659	0.247496	0.271679	1766.677612
7400.845691	0.317743	0.271679	2094.588379
7400.846593	0.091040	0.271679	2176.706543
7400.847463	0.091739	0.271679	2256.520020
7400.848344	0.091578	0.271679	2337.200684
7400.849380	0.091333	0.271679	2431.821777
7400.850266	0.091937	0.271679	2513.278076
7400.851125	0.091333	0.271679	2591.733154
7400.852219	0.091095	0.271679	2691.391113
7400.853115	0.091219	0.271679	2773.123779
7400.853980	0.091077	0.271679	2851.905029
7400.854970	0.090765	0.271679	2941.762695
7401.868300	0.569224	0.238486	286.888702
7401.869293	0.282330	0.238486	567.242737
7401.870181	0.289006	0.238486	823.880371
7401.871187	0.285820	0.238486	1111.415527
7401.872245	0.273186	0.238486	1400.446289
7401.873135	0.255839	0.238486	1628.142700
7401.874029	0.246387	0.238486	1848.412476
7401.875143	0.238063	0.238486	2113.614258
7401.876086	0.090850	0.238486	2199.285400
7401.876945	0.091604	0.238486	2277.973145
7401.877991	0.091403	0.238486	2373.580322
7401.879017	0.091333	0.238486	2467.288086
7401.879894	0.091652	0.238486	2547.666504
7401.880832	0.091117	0.238486	2633.134277
7401.881892	0.090883	0.238486	2729.469727
7401.882816	0.090809	0.238486	2813.377441
7401.883682	0.090652	0.238486	2891.881836
7401.884714	0.090623	0.238486	2985.404297
7402.875852	0.590017	0.281701	259.607544
7402.876725	0.279833	0.281701	503.901550
7402.877737	0.289493	0.281701	796.868896
7402.878794	0.286886	0.281701	1100.107422
7402.879676	0.276237	0.281701	1343.748047
7402.880556	0.259277	0.281701	1571.912109
7402.881658	0.247064	0.281701	1844.176880
7402.882627	0.234346	0.281701	2071.257812
7402.883486	0.091278	0.281701	2149.665771
7402.884518	0.091461	0.281701	2244.053711
7402.885579	0.091688	0.281701	2341.334961
7402.886448	0.091908	0.281701	2421.202881
7402.887384	0.091494	0.281701	2506.841309
7402.888448	0.091029	0.281701	2603.696289
7402.889382	0.091436	0.281701	2689.097168
7402.890249	0.091245	0.281701	2768.206787
7402.891287	0.090791	0.281701	2862.447754
7402.892310	0.090802	0.281701	2955.338135
7403.903423	0.616831	0.244121	264.003693
7403.904464	0.281722	0.244121	557.276733
7403.905499	0.289486	0.244121	856.894836
7403.906375	0.286044	0.244121	1107.469116
7403.907304	0.274874	0.244121	1362.827271
7403.908374	0.255381	0.244121	1636.084839
7403.909312	0.246683	0.244121	1867.473877
7403.910186	0.279954	0.244121	2112.153320
7403.911236	0.090784	0.244121	2207.476074
7403.912249	0.091626	0.244121	2300.293213
7403.913139	0.091827	0.244121	2382.019531
7403.914105	0.091450	0.244121	2470.360352
7403.915152	0.091190	0.244121	2565.836426
7403.916077	0.091329	0.244121	2650.316162
7403.916938	0.091102	0.244121	2728.755127
7403.918017	0.090798	0.244121	2826.726562
7403.919004	0.091113	0.244121	2916.655273
7403.919889	0.090941	0.244121	2997.138184
7404.914256	0.500522	0.274027	287.299927
7404.915309	0.284117	0.274027	586.475586
7404.916191	0.289720	0.274027	842.009033
7404.917087	0.285754	0.274027	1098.044922
7404.918211	0.271926	0.274027	1403.690063
7404.919158	0.254125	0.274027	1644.346191
7404.920020	0.246566	0.274027	1856.886230
7404.921070	0.230061	0.274027	2098.450195
7404.922105	0.091476	0.274027	2193.127686
7404.922997	0.092260	0.274027	2275.423096
7404.923961	0.091520	0.274027	2363.648193
7404.925024	0.091597	0.274027	2461.015381
7404.925947	0.091252	0.274027	2545.241455
7404.926814	0.091241	0.274027	2624.347900
7404.927895	0.090956	0.274027	2722.671143
7404.928898	0.090970	0.274027	2813.914551
7404.929788	0.090872	0.274027	2894.790283
7404.930765	0.090732	0.274027	2983.435791
7405.938671	0.563698	0.245845	265.501526
7405.939570	0.280576	0.245845	517.739502
7405.940444	0.288959	0.245845	770.289429
7405.941416	0.287029	0.245845	1049.281372
7405.942396	0.276779	0.245845	1320.524414
7405.943330	0.260380	0.245845	1563.718994
7405.944198	0.247595	0.245845	1778.631592
7405.945242	0.293229	0.245845	2084.762451
7405.946124	0.090663	0.245845	2164.727051
7405.946992	0.091813	0.245845	2244.420410
7405.947896	0.091571	0.245845	2327.200684
7405.948897	0.091652	0.245845	2418.943848
7405.949828	0.091586	0.245845	2504.210205
7405.950694	0.091578	0.245845	2583.517090
7405.951762	0.090930	0.245845	2680.630615
7405.952666	0.091047	0.245845	2762.937500
7405.953543	0.091139	0.245845	2842.866211
7405.954400	0.090773	0.245845	2920.658447
7406.952385	0.644810	0.277439	278.557709
7406.953252	0.279532	0.277439	520.912354
7406.954335	0.289347	0.277439	834.275085
7406.955349	0.286080	0.277439	1124.360596
7406.956249	0.275640	0.277439	1372.436279
7406.957224	0.257996	0.277439	1623.981934
7406.958274	0.246515	0.277439	1882.822510
7406.959196	0.272256	0.277439	2133.842529
7406.960058	0.090996	0.277439	2212.281250
7406.961145	0.091553	0.277439	2311.799072
7406.962137	0.091674	0.277439	2402.739258
7406.963014	0.092216	0.277439	2483.612305
7406.964013	0.091139	0.277439	2574.660156
7406.965069	0.091106	0.277439	2670.868164
7406.965947	0.091315	0.277439	2751.042480
7406.966817	0.090963	0.277439	2830.180420
7406.967917	0.090725	0.277439	2929.978027
7406.968880	0.091014	0.277439	3017.625000
7407.972797	0.633743	0.248266	268.706879
7407.973804	0.280624	0.248266	551.295044
7407.974861	0.289178	0.248266	856.956665
7407.975766	0.286135	0.248266	1115.909058
7407.976627	0.275669	0.248266	1353.260010
7407.977733	0.256329	0.248266	1636.760254
7407.978706	0.246478	0.248266	1876.583618
7407.979577	0.270015	0.248266	2111.766357
7407.980598	0.090842	0.248266	2204.516357
7407.981643	0.091542	0.248266	2300.177490
7407.982513	0.092201	0.248266	2380.392334
7407.983402	0.091564	0.248266	2461.792480
7407.984502	0.091333	0.248266	2562.258789
7407.985459	0.091366	0.248266	2649.696045
7407.986332	0.091256	0.248266	2729.362549
7407.987358	0.090813	0.248266	2822.536621
7407.988389	0.090751	0.248266	2916.100586
7407.989280	0.091234	0.248266	2997.390137
7408.992696	0.644169	0.268863	271.839172
7408.993682	0.280752	0.268863	548.660583
7408.994740	0.289420	0.268863	854.867065
7408.995651	0.286102	0.268863	1115.506226
7408.996519	0.275317	0.268863	1354.481689
7408.997610	0.256091	0.268863	1633.877319
7408.998603	0.246504	0.268863	1878.655640
7408.999491	0.297847	0.268863	2143.143555
7409.000503	0.090824	0.268863	2235.057373
7409.001553	0.091729	0.268863	2331.372314
7409.002427	0.092194	0.268863	2411.949463
7409.003319	0.091630	0.268863	2493.683105
7409.004415	0.091194	0.268863	2593.631592
7409.005365	0.091780	0.268863	2680.822510
7409.006221	0.091414	0.268863	2759.072510
7409.007218	0.090732	0.268863	2849.532715
7409.008260	0.090853	0.268863	2944.201904
7409.009149	0.091271	0.268863	3025.341553
7410.006452	0.645743	0.260811	272.503693
7410.007565	0.282905	0.260811	587.377197
7410.008533	0.289446	0.260811	867.560730
7410.009400	0.286263	0.260811	1115.751099
7410.010470	0.273406	0.260811	1408.295288
7410.011513	0.254008	0.260811	1673.225220
7410.012406	0.246445	0.260811	1893.300903
7410.013349	0.232156	0.260811	2112.223877
7410.014390	0.090919	0.260811	2206.870850
7410.015326	0.091805	0.260811	2292.800781
7410.016190	0.091787	0.260811	2372.104736
7410.017233	0.091289	0.260811	2467.319336
7410.018257	0.091146	0.260811	2560.653076
7410.019138	0.091450	0.260811	2641.220703
7410.020087	0.090963	0.260811	2727.544678
7410.021137	0.090835	0.260811	2822.921387
7410.022053	0.090850	0.260811	2906.139648
7410.022918	0.091003	0.260811	2984.857666
7411.031999	0.645245	0.270845	277.455505
7411.032871	0.279463	0.270845	521.147095
7411.033737	0.288699	0.270845	771.160217
7411.034789	0.287380	0.270845	1073.484375
7411.035686	0.278145	0.270845	1322.979980
7411.036567	0.263185	0.270845	1554.845825
7411.037530	0.248569	0.270845	1794.218018
7411.038511	0.309884	0.270845	2098.214355
7411.039445	0.090546	0.270845	2182.783936
7411.040315	0.091633	0.270845	2262.504883
7411.041359	0.091414	0.270845	2357.940674
7411.042247	0.091798	0.270845	2439.457275
7411.043120	0.091615	0.270845	2519.437256
7411.044041	0.091274	0.270845	2603.500977
7411.045028	0.090996	0.270845	2693.314209
7411.045948	0.091205	0.270845	2777.222656
7411.046832	0.091263	0.270845	2857.899414
7411.047823	0.090714	0.270845	2947.797119
7412.039110	0.629275	0.260351	268.071106
7412.039976	0.279536	0.260351	510.149414
7412.041100	0.289171	0.260351	835.177795
7412.041997	0.286326	0.260351	1092.011963
7412.042866	0.276658	0.260351	1332.427490
7412.043872	0.259226	0.260351	1593.208984
7412.044886	0.246552	0.260351	1843.212280
7412.045787	0.294448	0.260351	2108.510254
7412.046644	0.090725	0.260351	2186.261719
7412.047704	0.091545	0.260351	2283.299805
7412.048614	0.091718	0.260351	2366.762695
7412.049492	0.091831	0.260351	2447.390381
7412.050469	0.091304	0.260351	2536.593994
7412.051485	0.091157	0.260351	2629.209717
7412.052374	0.091110	0.260351	2710.206055
7412.053234	0.091036	0.260351	2788.497314
7412.054320	0.090765	0.260351	2887.068604
7412.055250	0.090645	0.260351	2971.367920
7413.072825	0.632373	0.257914	269.390900
7413.073944	0.282799	0.257914	585.843018
7413.074905	0.289321	0.257914	863.880798
7413.075769	0.285824	0.257914	1110.832764
7413.076822	0.273303	0.257914	1398.621094
7413.077862	0.254165	0.257914	1662.952759
7413.078749	0.246500	0.257914	1881.598511
7413.079705	0.214160	0.257914	2086.335693
7413.080753	0.090850	0.257914	2181.546143
7413.081693	0.091677	0.257914	2267.722656
7413.082550	0.091769	0.257914	2346.368408
7413.083599	0.091241	0.257914	2442.080811
7413.084627	0.091187	0.257914	2535.820557
7413.085513	0.091351	0.257914	2616.757812
7413.086465	0.090916	0.257914	2703.309326
7413.087526	0.090685	0.257914	2799.525879
7413.088455	0.090978	0.257914	2884.044189
7413.089323	0.091128	0.257914	2963.143311
7414.072255	0.630593	0.273081	269.263306
7414.073257	0.281074	0.273081	550.899658
7414.074331	0.289387	0.273081	861.701538
7414.075204	0.286172	0.273081	1111.529541
7414.076084	0.275380	0.273081	1353.863647
7414.077191	0.255692	0.273081	1636.914795
7414.078163	0.246577	0.273081	1876.587769
7414.079039	0.275900	0.273081	2118.275879
7414.080051	0.090721	0.273081	2210.085937
7414.081102	0.091729	0.273081	2306.492676
7414.081990	0.092058	0.273081	2388.240234
7414.082918	0.091392	0.273081	2473.051758
7414.083977	0.090992	0.273081	2569.412842
7414.084927	0.091198	0.273081	2656.050537
7414.085790	0.091150	0.273081	2734.712891
7414.086851	0.090835	0.273081	2831.088867
7414.087864	0.090835	0.273081	2923.104736
7414.088751	0.091425	0.273081	3004.198242
7415.113265	0.484856	0.253475	259.397919
7415.114337	0.283762	0.253475	563.591003
7415.115217	0.289343	0.253475	818.213074
7415.116157	0.285597	0.253475	1086.674194
7415.117234	0.271959	0.253475	1379.574219
7415.118174	0.254169	0.253475	1618.492798
7415.119050	0.246665	0.253475	1834.571411
7415.120104	0.224960	0.253475	2071.678955
7415.121126	0.090850	0.253475	2164.527344
7415.122015	0.091820	0.253475	2246.155273
7415.122972	0.091619	0.253475	2333.834229
7415.124026	0.091340	0.253475	2430.106934
7415.124946	0.091410	0.253475	2514.204102
7415.125811	0.091102	0.253475	2593.007568
7415.126888	0.090820	0.253475	2690.821045
7415.127893	0.090732	0.253475	2782.007080
7415.128788	0.090846	0.253475	2863.314209
7415.129782	0.090773	0.253475	2953.542236
7416.104414	0.577767	0.282994	265.772949
7416.105292	0.280009	0.282994	511.620422
7416.106276	0.289043	0.282994	796.038696
7416.107315	0.286417	0.282994	1093.626221
7416.108234	0.275845	0.282994	1347.127563
7416.109099	0.259581	0.282994	1571.665405
7416.110191	0.246844	0.282994	1841.219604
7416.111192	0.267330	0.282994	2108.817383
7416.112068	0.090813	0.282994	2188.369629
7416.113083	0.091560	0.282994	2281.302979
7416.114120	0.091798	0.282994	2376.497559
7416.115000	0.091674	0.282994	2457.170410
7416.115863	0.091150	0.282994	2535.832764
7416.116977	0.091033	0.282994	2637.243164
7416.117943	0.091146	0.282994	2725.290527
7416.118811	0.091062	0.282994	2804.332275
7416.119827	0.090791	0.282994	2896.575928
7416.120876	0.090699	0.282994	2991.719727
7417.154070	0.554604	0.249064	278.966034
7417.154949	0.281001	0.249064	525.965881
7417.155845	0.289285	0.249064	785.164917
7417.156947	0.286399	0.249064	1100.776611
7417.157896	0.275116	0.249064	1361.861694
7417.158766	0.258984	0.249064	1587.178101
7417.159788	0.246859	0.249064	1839.468140
7417.160817	0.237513	0.249064	2083.869385
7417.161710	0.090919	0.249064	2165.060303
7417.162649	0.091498	0.249064	2250.976807
7417.163712	0.091479	0.249064	2348.219482
7417.164651	0.091783	0.249064	2434.404053
7417.165524	0.091274	0.249064	2514.086670
7417.166579	0.091099	0.249064	2610.195801
7417.167595	0.090992	0.249064	2702.644043
7417.168485	0.091154	0.249064	2783.770752
7417.169438	0.090743	0.249064	2870.249268
7417.170481	0.090648	0.249064	2964.795410
7418.138049	0.602798	0.281146	259.805878
7418.138912	0.279177	0.281146	500.735840
7418.140016	0.288842	0.281146	819.616943
7418.140988	0.285798	0.281146	1097.412964
7418.141877	0.275629	0.281146	1342.446777
7418.142900	0.257340	0.281146	1605.705688
7418.143950	0.246335	0.281146	1864.357910
7418.144841	0.251675	0.281146	2088.600098
7418.145717	0.090828	0.281146	2168.165039
7418.146835	0.091542	0.281146	2270.508789
7418.147785	0.091359	0.281146	2357.299561
7418.148644	0.091644	0.281146	2436.021973
7418.149688	0.091183	0.281146	2531.216797
7418.150727	0.091132	0.281146	2625.902588
7418.151610	0.091454	0.281146	2706.656250
7418.152538	0.091014	0.281146	2791.117676
7418.153611	0.090776	0.281146	2888.520752
7418.154547	0.091183	0.281146	2973.867920
7419.194308	0.630842	0.236786	273.785553
7419.195177	0.279485	0.236786	516.657898
7419.196223	0.289431	0.236786	819.402893
7419.197275	0.286238	0.236786	1120.525024
7419.198172	0.275665	0.236786	1367.796753
7419.199114	0.258552	0.236786	1611.353027
7419.200182	0.246592	0.236786	1874.713135
7419.201131	0.269264	0.236786	2130.244629
7419.201994	0.090846	0.236786	2208.644775
7419.203066	0.091454	0.236786	2306.683350
7419.204065	0.091615	0.236786	2398.206787
7419.204945	0.091355	0.236786	2478.599121
7419.205923	0.091194	0.236786	2567.786621
7419.206971	0.090919	0.236786	2663.069824
7419.207884	0.090956	0.236786	2746.112549
7419.208742	0.091003	0.236786	2824.193359
7419.209822	0.090765	0.236786	2922.219971
7419.210828	0.090560	0.236786	3013.323730
7420.171706	0.644473	0.291849	273.256409
7420.172727	0.281371	0.291849	560.536011
7420.173788	0.289387	0.291849	867.575867
7420.174683	0.286088	0.291849	1123.624268
7420.175572	0.274933	0.291849	1368.039551
7420.176688	0.255026	0.291849	1652.648193
7420.177641	0.246614	0.291849	1887.671143
7420.178513	0.252865	0.291849	2108.169434
7420.179579	0.090813	0.291849	2204.976074
7420.180598	0.091619	0.291849	2298.335449
7420.181481	0.091798	0.291849	2379.393066
7420.182447	0.091344	0.291849	2467.631348
7420.183488	0.091051	0.291849	2562.415527
7420.184405	0.091238	0.291849	2646.080566
7420.185262	0.090963	0.291849	2724.035889
7420.186342	0.090806	0.291849	2822.105957
7420.187348	0.090758	0.291849	2913.408447
7420.188219	0.090725	0.291849	2992.429932
7421.233172	0.566221	0.235122	288.206329
7421.234122	0.282187	0.235122	556.284424
7421.234991	0.289332	0.235122	807.714172
7421.235999	0.286370	0.235122	1096.374756
7421.237047	0.274318	0.235122	1383.859619
7421.237944	0.257560	0.235122	1614.890747
7421.238890	0.246951	0.235122	1848.506104
7421.239965	0.243545	0.235122	2110.316895
7421.240910	0.090817	0.235122	2196.138672
7421.241771	0.091798	0.235122	2275.176758
7421.242843	0.091425	0.235122	2373.183838
7421.243850	0.091183	0.235122	2465.004883
7421.244733	0.091425	0.235122	2545.732666
7421.245700	0.091029	0.235122	2633.757812
7421.246739	0.090938	0.235122	2728.241943
7421.247653	0.091135	0.235122	2811.539551
7421.248514	0.091018	0.235122	2889.906006
7421.249580	0.090923	0.235122	2986.829834
7422.205886	0.645286	0.299362	273.601105
7422.206948	0.281810	0.299362	572.883667
7422.207834	0.289036	0.299362	828.969238
7422.208702	0.287036	0.299362	1078.116577
7422.209626	0.276680	0.299362	1333.768555
7422.210636	0.259189	0.299362	1595.549927
7422.211566	0.247028	0.299362	1825.285522
7422.212453	0.322112	0.299362	2110.998779
7422.213489	0.090809	0.299362	2205.077148
7422.214399	0.091849	0.299362	2288.660156
7422.215270	0.091827	0.299362	2368.641846
7422.216135	0.091648	0.299362	2447.917236
7422.217186	0.091564	0.299362	2544.150635
7422.218066	0.091274	0.299362	2624.472168
7422.218936	0.091553	0.299362	2704.123047
7422.219929	0.090905	0.299362	2794.391357
7422.220861	0.091106	0.299362	2879.302002
7422.221766	0.091011	0.299362	2961.666748
7423.271350	1.142201	0.236612	480.866547
7423.272352	2.214771	0.236612	2700.066650
7423.273419	2.325498	0.236612	5181.373047
7423.274313	1.678792	0.236612	6682.212891
7423.275198	0.851279	0.236612	7435.595215
7423.276300	0.752274	0.236612	8264.601562
7423.277252	0.724644	0.236612	8954.461914
7423.278117	0.404410	0.236612	9304.277344
7423.279157	0.090681	0.236612	9398.585937
7423.280195	0.091622	0.236612	9493.689453
7423.281073	0.091974	0.236612	9574.442383
7423.282008	0.091417	0.236612	9659.917969
7423.283065	0.091157	0.236612	9756.271484
7423.284000	0.091501	0.236612	9841.825195
7423.284857	0.090916	0.236612	9919.740234
7423.285883	0.090736	0.236612	10012.835937
7423.286906	0.090934	0.236612	10105.861328
7423.287795	0.091234	0.236612	10186.968750
7424.242715	0.566656	0.300042	286.728180
7424.243716	0.282469	0.300042	569.480103
7424.244603	0.288911	0.300042	825.744263
7424.245618	0.285465	0.300042	1115.491333
7424.246671	0.272516	0.300042	1402.450562
7424.247552	0.255491	0.300042	1627.537842
7424.248442	0.246416	0.300042	1846.848145
7424.249545	0.228783	0.300042	2099.195801
7424.250495	0.091110	0.300042	2185.750000
7424.251355	0.091483	0.300042	2264.425537
7424.252384	0.091410	0.300042	2358.486328
7424.253442	0.091285	0.300042	2455.066406
7424.254311	0.091787	0.300042	2534.829346
7424.255243	0.091080	0.300042	2619.716309
7424.256297	0.090923	0.300042	2715.549072
7424.257240	0.090883	0.300042	2801.251221
7424.258112	0.091150	0.300042	2880.733887
7424.259158	0.090710	0.300042	2975.616943
7425.308711	0.645414	0.228898	344.650970
7425.309768	0.283293	0.228898	644.092163
7425.310678	0.289175	0.228898	907.241211
7425.311539	0.285670	0.228898	1153.203247
7425.312653	0.272505	0.228898	1456.773682
7425.313620	0.254246	0.228898	1702.629150
7425.314496	0.246174	0.228898	1918.277832
7425.315522	0.246471	0.228898	2171.156982
7425.316579	0.091066	0.228898	2267.413330
7425.317450	0.091644	0.228898	2347.235596
7425.318333	0.091545	0.228898	2428.070312
7425.319436	0.091205	0.228898	2528.669189
7425.320397	0.091483	0.228898	2616.584473
7425.321262	0.091450	0.228898	2695.688965
7425.322285	0.090945	0.228898	2788.725586
7425.323315	0.090923	0.228898	2882.376221
7425.324202	0.091106	0.228898	2963.187256
7425.325130	0.090626	0.228898	3047.288330
7426.278382	0.650977	0.306629	309.864868
7426.279457	0.283202	0.306629	614.306885
7426.280411	0.289453	0.306629	890.445190
7426.281278	0.286040	0.306629	1138.441895
7426.282362	0.272802	0.306629	1434.158691
7426.283368	0.254011	0.306629	1689.693970
7426.284258	0.246398	0.306629	1908.987915
7426.285242	0.215218	0.306629	2120.762939
7426.286293	0.091036	0.306629	2216.442139
7426.287197	0.091769	0.306629	2299.401123
7426.288055	0.091608	0.306629	2378.000488
7426.289136	0.091326	0.306629	2476.723633
7426.290130	0.091450	0.306629	2567.625000
7426.291004	0.091223	0.306629	2647.354004
7426.291997	0.090802	0.306629	2737.520508
7426.293040	0.090864	0.306629	2832.291992
7426.293922	0.090959	0.306629	2912.518311
7426.294787	0.090952	0.306629	2991.191895
7427.345956	0.538535	0.228338	277.884155
7427.346896	0.281528	0.228338	542.520752
7427.347772	0.288787	0.228338	795.497803
7427.348705	0.286619	0.228338	1062.912964
7427.349781	0.274775	0.228338	1358.571289
7427.350675	0.258490	0.228338	1589.661377
7427.351542	0.246969	0.228338	1803.783447
7427.352598	0.266722	0.228338	2085.442383
7427.353553	0.091099	0.228338	2172.441650
7427.354421	0.092087	0.228338	2252.373535
7427.355340	0.091505	0.228338	2336.466797
7427.356406	0.091578	0.228338	2434.089355
7427.357281	0.091414	0.228338	2514.076172
7427.358137	0.091366	0.228338	2592.285400
7427.359157	0.090824	0.228338	2684.925781
7427.360129	0.091029	0.228338	2773.406006
7427.361000	0.091274	0.228338	2852.906006
7427.361862	0.090659	0.228338	2931.054199
7428.316175	0.575530	0.296799	292.369110
7428.317071	0.281027	0.296799	544.168945
7428.317948	0.288981	0.296799	797.605042
7428.318960	0.286739	0.296799	1087.785400
7428.319948	0.275728	0.296799	1360.204224
7428.320830	0.259951	0.296799	1589.481201
7428.321836	0.247178	0.296799	1838.141968
7428.322878	0.263998	0.296799	2113.227539
7428.323765	0.091066	0.296799	2194.002686
7428.324623	0.091461	0.296799	2272.476318
7428.325721	0.091399	0.296799	2372.832275
7428.326686	0.091538	0.296799	2461.166504
7428.327541	0.091897	0.296799	2539.738525
7428.328605	0.090839	0.296799	2636.390869
7428.329668	0.091007	0.296799	2733.131348
7428.330544	0.091531	0.296799	2813.312256
7428.331461	0.091036	0.296799	2896.792725
7428.332530	0.090663	0.296799	2993.711426
7429.382177	0.539026	0.229406	276.520294
7429.383168	0.282924	0.229406	556.897583
7429.384063	0.289387	0.229406	815.899170
7429.385070	0.286003	0.229406	1103.904541
7429.386131	0.273021	0.229406	1393.580078
7429.387020	0.255787	0.229406	1620.974976
7429.387892	0.246643	0.229406	1836.047729
7429.388987	0.229600	0.229406	2087.459229
7429.389952	0.090710	0.229406	2174.994873
7429.390814	0.091805	0.229406	2254.131104
7429.391869	0.091381	0.229406	2350.537598
7429.392916	0.091597	0.229406	2446.439209
7429.393791	0.091758	0.229406	2526.727295
7429.394710	0.091179	0.229406	2610.520996
7429.395784	0.090963	0.229406	2708.215332
7429.396724	0.091157	0.229406	2793.903076
7429.397591	0.091080	0.229406	2872.869629
7429.398616	0.090740	0.229406	2965.877930
7430.352411	0.538213	0.297106	275.026794
7430.353338	0.281602	0.297106	536.071411
7430.354199	0.289054	0.297106	784.946838
7430.355269	0.286077	0.297106	1091.048828
7430.356290	0.273904	0.297106	1370.704590
7430.357166	0.257446	0.297106	1596.227539
7430.358135	0.246753	0.297106	1835.331177
7430.359196	0.233701	0.297106	2083.288086
7430.360105	0.090667	0.297106	2165.703857
7430.360971	0.091571	0.297106	2245.004395
7430.362062	0.091318	0.297106	2344.632812
7430.363049	0.091212	0.297106	2434.659180
7430.363941	0.091509	0.297106	2516.284912
7430.364929	0.090952	0.297106	2606.145752
7430.365984	0.090857	0.297106	2701.999756
7430.366885	0.091055	0.297106	2784.040039
7430.367745	0.090861	0.297106	2862.180176
7430.368845	0.090590	0.297106	2961.828613
