time (s)	coil I (A)	last det (V)	int current (uC)
5864.851410	1.102460	0.235103	467.442963
5864.852565	1.529810	0.235103	2234.373047
5864.853462	1.502084	0.235103	3581.742187
5864.854347	1.462203	0.235103	4875.791992
5864.855453	1.417104	0.235103	6443.109375
5864.856414	1.378656	0.235103	7767.998047
5864.857278	1.345265	0.235103	8930.306641
5864.858325	1.307278	0.235103	10299.026367
5864.859351	1.271638	0.235103	11603.727539
5864.860244	1.241400	0.235103	12712.297852
5864.861193	1.210129	0.235103	13860.710937
5864.862230	1.176394	0.235103	15080.631836
5864.863172	1.147657	0.235103	16161.724609
5864.864042	1.124275	0.235103	17139.843750
5864.865093	1.097311	0.235103	18293.117187
5864.866137	0.665760	0.235103	18988.171875
5864.867010	0.096405	0.235103	19072.333984
5864.867972	0.089916	0.235103	19158.832031
5864.869040	0.089989	0.235103	19254.939453
5864.869943	0.090004	0.235103	19336.212891
5864.870808	0.089934	0.235103	19414.005859
5864.871876	0.089934	0.235103	19510.054687
5864.872868	0.089927	0.235103	19599.261719
5864.873758	0.089886	0.235103	19679.259766
5864.874742	0.089982	0.235103	19767.800781
5864.875796	0.089949	0.235103	19862.607422
5866.019781	1.064143	0.126995	457.581512
5866.020646	1.523840	0.126995	1775.703369
5866.021703	1.507500	0.126995	3369.130859
5866.022709	1.463749	0.126995	4841.662109
5866.023603	1.426359	0.126995	6116.826660
5866.024576	1.387291	0.126995	7466.661133
5866.025631	1.346433	0.126995	8887.148437
5866.026555	1.312412	0.126995	10099.817383
5866.027422	1.280757	0.126995	11210.233398
5866.028508	1.245139	0.126995	12562.455078
5866.029481	1.212195	0.126995	13741.920898
5866.030365	1.184176	0.126995	14788.732422
5866.031394	1.152499	0.126995	15974.653320
5866.032449	1.124242	0.126995	17160.728516
5866.033341	1.101171	0.126995	18142.972656
5866.034231	0.859991	0.126995	18908.365234
5866.035323	0.106143	0.126995	19024.273437
5866.036276	0.089850	0.126995	19109.900391
5866.037136	0.089938	0.126995	19187.246094
5866.038166	0.090033	0.126995	19279.980469
5866.039203	0.089916	0.126995	19373.222656
5866.040078	0.089886	0.126995	19451.873047
5866.041005	0.090000	0.126995	19535.302734
5866.042070	0.090000	0.126995	19631.152344
5866.043008	0.089941	0.126995	19715.517578
5866.043865	0.089945	0.126995	19792.599609
5866.889673	1.064601	0.228154	464.165955
5866.890536	1.523258	0.228154	1778.737793
5866.891615	1.506405	0.228154	3404.148926
5866.892630	1.462423	0.228154	4888.508301
5866.893509	1.425092	0.228154	6141.164062
5866.894515	1.385380	0.228154	7534.855957
5866.895569	1.344822	0.228154	8952.297852
5866.896458	1.311284	0.228154	10118.029297
5866.897330	1.279482	0.228154	11233.738281
5866.898422	1.243696	0.228154	12591.854492
5866.899411	1.210595	0.228154	13789.132812
5866.900313	1.181162	0.228154	14854.541016
5866.901302	1.151140	0.228154	15993.018555
5866.902355	1.123557	0.228154	17176.125000
5866.903249	1.099977	0.228154	18159.503906
5866.904134	0.848302	0.228154	18910.251953
5866.905218	0.103356	0.228154	19022.289062
5866.906168	0.089861	0.228154	19107.656250
5866.907033	0.089927	0.228154	19185.443359
5866.908075	0.089952	0.228154	19279.173828
5866.909106	0.089857	0.228154	19371.816406
5866.910002	0.089967	0.228154	19452.427734
5866.910930	0.089923	0.228154	19535.876953
5866.911981	0.089941	0.228154	19630.406250
5866.912915	0.089934	0.228154	19714.404297
5866.913777	0.089963	0.228154	19791.953125
5868.056514	1.053692	0.126403	449.926270
5868.057437	1.522577	0.126403	1855.264771
5868.058510	1.504944	0.126403	3470.069336
5868.059452	1.463782	0.126403	4848.951660
5868.060317	1.427065	0.126403	6083.363281
5868.061371	1.385065	0.126403	7543.221680
5868.062399	1.345433	0.126403	8926.327148
5868.063291	1.312364	0.126403	10096.956055
5868.064245	1.278937	0.126403	11317.061523
5868.065316	1.242817	0.126403	12648.119141
5868.066235	1.211788	0.126403	13761.752930
5868.067148	1.182459	0.126403	14841.337891
5868.068026	1.154326	0.126403	15854.835937
5868.069065	1.126417	0.126403	17025.183594
5868.069963	1.103925	0.126403	18016.507812
5868.070843	1.022377	0.126403	18916.199219
5868.071810	0.182765	0.126403	19092.933594
5868.072779	0.089795	0.126403	19179.945312
5868.073702	0.089828	0.126403	19262.855469
5868.074564	0.089872	0.126403	19340.324219
5868.075598	0.089960	0.126403	19433.341797
5868.076472	0.089861	0.126403	19511.880859
5868.077332	0.089897	0.126403	19589.193359
5868.078210	0.089934	0.126403	19668.156250
5868.079241	0.089864	0.126403	19760.806641
5868.080133	0.089927	0.126403	19841.021484
5868.932118	1.122510	0.216867	573.602539
5868.933005	1.527971	0.216867	1928.912964
5868.933867	1.509005	0.216867	3229.675293
5868.934982	1.463199	0.216867	4861.142578
5868.935943	1.422773	0.216867	6228.427734
5868.936806	1.387273	0.216867	7425.644531
5868.937824	1.347803	0.216867	8797.708008
5868.938893	1.309845	0.216867	10197.932617
5868.939774	1.278102	0.216867	11323.940430
5868.940651	1.248486	0.216867	12418.863281
5868.941567	1.217743	0.216867	13534.315430
5868.942563	1.185641	0.216867	14715.213867
5868.943476	1.156600	0.216867	15771.189453
5868.944367	1.131039	0.216867	16778.945312
5868.945386	1.107334	0.216867	17907.318359
5868.946294	1.041185	0.216867	18852.714844
5868.947224	0.199977	0.216867	19038.693359
5868.948084	0.089846	0.216867	19115.960937
5868.949126	0.089949	0.216867	19209.687500
5868.950007	0.089901	0.216867	19288.890625
5868.950869	0.089901	0.216867	19366.384766
5868.951852	0.089945	0.216867	19454.800781
5868.952787	0.089993	0.216867	19538.943359
5868.953662	0.089930	0.216867	19617.632812
5868.954614	0.090018	0.216867	19703.330078
5868.955632	0.089894	0.216867	19794.841797
5870.086598	1.066150	0.156543	457.378326
5870.087461	1.522775	0.156543	1771.532837
5870.088559	1.505779	0.156543	3424.877930
5870.089476	1.465642	0.156543	4768.871582
5870.090362	1.428563	0.156543	6034.578613
5870.091347	1.388877	0.156543	7402.622559
5870.092344	1.349828	0.156543	8748.401367
5870.093239	1.316898	0.156543	9927.025391
5870.094107	1.285074	0.156543	11042.469727
5870.095196	1.249406	0.156543	12403.072266
5870.096115	1.218149	0.156543	13522.551758
5870.096993	1.189614	0.156543	14567.033203
5870.097984	1.159362	0.156543	15715.960937
5870.098993	1.129801	0.156543	16855.929687
5870.099876	1.108499	0.156543	17834.734375
5870.100876	1.013807	0.156543	18848.541016
5870.101939	0.153640	0.156543	19011.861328
5870.102834	0.089883	0.156543	19092.306641
5870.103693	0.089916	0.156543	19169.544922
5870.104768	0.090015	0.156543	19266.310547
5870.105760	0.089894	0.156543	19355.484375
5870.106642	0.089916	0.156543	19434.791016
5870.107612	0.090015	0.156543	19522.105469
5870.108656	0.089930	0.156543	19615.992187
5870.109546	0.090026	0.156543	19696.115234
5870.110406	0.089908	0.156543	19773.435547
5870.972858	1.047887	0.231905	441.160400
5870.973763	1.521830	0.231905	1818.416382
5870.974843	1.505010	0.231905	3443.826904
5870.975799	1.463588	0.231905	4843.016602
5870.976665	1.426879	0.231905	6078.693359
5870.977711	1.384779	0.231905	7527.171875
5870.978737	1.345426	0.231905	8907.579102
5870.979620	1.312771	0.231905	10066.755859
5870.980565	1.280061	0.231905	11276.413086
5870.981624	1.244154	0.231905	12593.972656
5870.982561	1.212686	0.231905	13730.258789
5870.983422	1.183799	0.231905	14749.509766
5870.984482	1.151829	0.231905	15970.448242
5870.985504	1.124374	0.231905	17119.558594
5870.986379	1.101775	0.231905	18083.611328
5870.987355	0.845259	0.231905	18908.583984
5870.988421	0.103436	0.231905	19018.847656
5870.989330	0.089883	0.231905	19100.550781
5870.990197	0.089894	0.231905	19178.488281
5870.991273	0.089971	0.231905	19275.296875
5870.992260	0.089985	0.231905	19364.113281
5870.993150	0.089963	0.231905	19444.181641
5870.994133	0.090004	0.231905	19532.654297
5870.995179	0.089971	0.231905	19626.763672
5870.996081	0.089982	0.231905	19707.927734
5870.996943	0.089949	0.231905	19785.462891
5872.126905	1.069666	0.135982	453.538208
5872.128003	1.528154	0.135982	2131.451660
5872.128981	1.501307	0.135982	3599.730225
5872.129851	1.463046	0.135982	4872.580078
5872.130866	1.420419	0.135982	6314.304687
5872.131915	1.378722	0.135982	7760.583984
5872.132807	1.344195	0.135982	8959.606445
5872.133723	1.310504	0.135982	10160.028320
5872.134806	1.272942	0.135982	11538.624023
5872.135756	1.240811	0.135982	12717.394531
5872.136626	1.211294	0.135982	13771.220703
5872.137685	1.177811	0.135982	15018.522461
5872.138698	1.146240	0.135982	16179.664062
5872.139576	1.123561	0.135982	17166.150391
5872.140552	1.098776	0.135982	18238.554687
5872.141590	0.699749	0.135982	18964.894531
5872.142500	0.097200	0.135982	19053.345703
5872.143360	0.089821	0.135982	19130.591797
5872.144413	0.090026	0.135982	19225.388672
5872.145417	0.089908	0.135982	19315.656250
5872.146286	0.089905	0.135982	19393.783203
5872.147247	0.089927	0.135982	19480.203125
5872.148289	0.089945	0.135982	19573.925781
5872.149204	0.089978	0.135982	19656.255859
5872.150068	0.089927	0.135982	19733.953125
5872.151139	0.090011	0.135982	19830.355469
5873.016759	1.065004	0.241633	446.236511
5873.017855	1.527682	0.241633	2120.575928
5873.018826	1.501465	0.241633	3578.498291
5873.019696	1.463361	0.241633	4851.622070
5873.020754	1.419199	0.241633	6353.134766
5873.021804	1.377191	0.241633	7799.185547
5873.022692	1.342837	0.241633	8991.625000
5873.023619	1.309230	0.241633	10205.281250
5873.024696	1.271711	0.241633	11574.914062
5873.025630	1.239822	0.241633	12732.907227
5873.026561	1.208774	0.241633	13858.276367
5873.027425	1.181334	0.241633	14878.949219
5873.028453	1.149855	0.241633	16061.000000
5873.029343	1.125348	0.241633	17062.560547
5873.030221	1.103668	0.241633	18031.582031
5873.031146	0.931556	0.241633	18893.271484
5873.032145	0.127346	0.241633	19020.490234
5873.033040	0.089806	0.241633	19100.867187
5873.033930	0.089901	0.241633	19180.878906
5873.034919	0.089960	0.241633	19269.849609
5873.035839	0.089875	0.241633	19352.535156
5873.036762	0.089905	0.241633	19435.517578
5873.037624	0.089919	0.241633	19513.027344
5873.038663	0.089927	0.241633	19606.460937
5873.039552	0.089897	0.241633	19686.378906
5873.040412	0.089927	0.241633	19763.716797
5874.166203	1.056639	0.146754	450.128387
5874.167070	1.522507	0.146754	1770.142212
5874.168188	1.505273	0.146754	3453.038086
5874.169102	1.464778	0.146754	4791.844727
5874.169988	1.427824	0.146754	6056.896484
5874.171009	1.386892	0.146754	7472.913086
5874.172007	1.347737	0.146754	8817.954102
5874.172898	1.315023	0.146754	9989.639648
5874.173758	1.283485	0.146754	11093.436523
5874.174849	1.248369	0.146754	12455.407227
5874.175741	1.217677	0.146754	13541.575195
5874.176604	1.188571	0.146754	14567.311523
5874.177679	1.155861	0.146754	15809.861328
5874.178682	1.127560	0.146754	16940.804687
5874.179580	1.106151	0.146754	17934.128906
5874.180582	0.938309	0.146754	18874.314453
5874.181636	0.123021	0.146754	19003.978516
5874.182529	0.089905	0.146754	19084.263672
5874.183417	0.089967	0.146754	19164.154297
5874.184498	0.090073	0.146754	19261.523437
5874.185458	0.089908	0.146754	19347.835937
5874.186322	0.089908	0.146754	19425.517578
5874.187359	0.090015	0.146754	19518.863281
5874.188388	0.089963	0.146754	19611.435547
5874.189282	0.090000	0.146754	19691.896484
5874.190213	0.090026	0.146754	19775.710937
5875.054623	1.134683	0.226680	583.226807
5875.055542	1.528140	0.226680	1987.587158
5875.056403	1.507936	0.226680	3285.919922
5875.057494	1.462163	0.226680	4881.139648
5875.058497	1.419921	0.226680	6305.319824
5875.059372	1.384131	0.226680	7516.434570
5875.060352	1.346576	0.226680	8836.079102
5875.061414	1.308076	0.226680	10225.255859
5875.062311	1.276421	0.226680	11370.205078
5875.063185	1.245652	0.226680	12458.904297
5875.064290	1.209888	0.226680	13795.830078
5875.065257	1.178547	0.226680	14935.485352
5875.066139	1.151481	0.226680	15951.091797
5875.067130	1.124883	0.226680	17065.851562
5875.068199	1.097509	0.226680	18239.087891
5875.069092	0.827003	0.226680	18977.601562
5875.069982	0.112126	0.226680	19077.394531
5875.071087	0.089938	0.226680	19176.775391
5875.072054	0.089941	0.226680	19263.748047
5875.072914	0.089901	0.226680	19341.062500
5875.073934	0.090018	0.226680	19432.880859
5875.074956	0.089971	0.226680	19524.830078
5875.075837	0.090022	0.226680	19604.138672
5875.076747	0.090000	0.226680	19686.039062
5875.077793	0.089960	0.226680	19780.136719
5875.078730	0.090011	0.226680	19864.476562
5876.208585	1.064593	0.161035	465.227325
5876.209451	1.523390	0.161035	1784.483032
5876.210505	1.506951	0.161035	3372.809082
5876.211538	1.462240	0.161035	4883.302734
5876.212422	1.424791	0.161035	6142.818359
5876.213380	1.386423	0.161035	7471.011719
5876.214446	1.345261	0.161035	8905.060547
5876.215376	1.310958	0.161035	10124.251953
5876.216237	1.280182	0.161035	11226.488281
5876.217309	1.244868	0.161035	12560.987305
5876.218319	1.210818	0.161035	13783.913086
5876.219194	1.182404	0.161035	14818.516602
5876.220160	1.152740	0.161035	15932.064453
5876.221215	1.124136	0.161035	17118.027344
5876.222126	1.100409	0.161035	18120.500000
5876.222999	0.899407	0.161035	18905.681641
5876.224088	0.108146	0.161035	19023.453125
5876.225080	0.089843	0.161035	19112.576172
5876.225975	0.089908	0.161035	19193.044922
5876.226962	0.089934	0.161035	19281.810547
5876.228018	0.089919	0.161035	19376.765625
5876.228922	0.089905	0.161035	19458.039062
5876.229786	0.089868	0.161035	19535.685547
5876.230890	0.090040	0.161035	19635.089844
5876.231869	0.089875	0.161035	19723.078125
5876.232730	0.089916	0.161035	19800.496094
5877.091333	1.109670	0.240920	549.286865
5877.092212	1.526415	0.240920	1891.005493
5877.093097	1.509097	0.240920	3226.556152
5877.094193	1.463086	0.240920	4830.098633
5877.095156	1.422825	0.240920	6200.278809
5877.096020	1.387456	0.240920	7399.041016
5877.097053	1.347902	0.240920	8791.423828
5877.098092	1.310123	0.240920	10152.641602
5877.098974	1.278955	0.240920	11280.679687
5877.099896	1.247289	0.240920	12430.679687
5877.100955	1.212012	0.240920	13714.200195
5877.101894	1.181913	0.240920	14824.016602
5877.102766	1.154352	0.240920	15830.611328
5877.103801	1.125791	0.240920	16995.804687
5877.104836	1.099783	0.240920	18134.080078
5877.105727	0.916285	0.240920	18950.490234
5877.106689	0.130953	0.240920	19076.466797
5877.107739	0.089886	0.240920	19170.847656
5877.108674	0.089963	0.240920	19254.962891
5877.109536	0.089949	0.240920	19332.498047
5877.110602	0.090048	0.240920	19428.488281
5877.111600	0.089875	0.240920	19518.183594
5877.112491	0.089868	0.240920	19598.255859
5877.113465	0.089963	0.240920	19685.880859
5877.114511	0.089857	0.240920	19779.871094
5877.115413	0.089839	0.240920	19860.906250
5878.243876	1.139864	0.137783	589.309937
5878.244886	1.529429	0.137783	2134.032959
5878.245765	1.504523	0.137783	3456.508301
5878.246777	1.461149	0.137783	4935.190918
5878.247828	1.417456	0.137783	6424.937500
5878.248725	1.380623	0.137783	7663.355957
5878.249586	1.345675	0.137783	8821.982422
5878.250665	1.307413	0.137783	10232.681641
5878.251647	1.273865	0.137783	11483.617187
5878.252515	1.244634	0.137783	12563.958984
5878.253570	1.209100	0.137783	13839.559570
5878.254606	1.176097	0.137783	15057.996094
5878.255500	1.148020	0.137783	16084.326172
5878.256422	1.123898	0.137783	17120.560547
5878.257483	1.096527	0.137783	18283.976562
5878.258437	0.734330	0.137783	18984.527344
5878.259303	0.100858	0.137783	19071.871094
5878.260356	0.089949	0.137783	19166.587891
5878.261375	0.089894	0.137783	19258.189453
5878.262273	0.089861	0.137783	19338.884766
5878.263229	0.089978	0.137783	19424.904297
5878.264259	0.089934	0.137783	19517.537109
5878.265188	0.089923	0.137783	19601.076172
5878.266049	0.089908	0.137783	19678.488281
5878.267109	0.089923	0.137783	19773.806641
5878.268115	0.089854	0.137783	19864.199219
5879.132087	1.047041	0.248727	439.757202
5879.133025	1.521163	0.248727	1866.608398
5879.134111	1.502714	0.248727	3498.555176
5879.135050	1.461793	0.248727	4871.178711
5879.135924	1.424703	0.248727	6116.369629
5879.137003	1.381589	0.248727	7607.104492
5879.138010	1.343053	0.248727	8959.558594
5879.138905	1.310241	0.248727	10132.223633
5879.139861	1.277153	0.248727	11353.181641
5879.140921	1.241298	0.248727	12668.957031
5879.141835	1.210543	0.248727	13775.393555
5879.142702	1.181664	0.248727	14799.896484
5879.143795	1.148756	0.248727	16055.487305
5879.144798	1.122572	0.248727	17181.427734
5879.145676	1.099515	0.248727	18146.802734
5879.146684	0.781091	0.248727	18934.142578
5879.147730	0.098031	0.248727	19036.683594
5879.148624	0.089868	0.248727	19117.025391
5879.149482	0.089952	0.248727	19194.205078
5879.150577	0.090026	0.248727	19292.783203
5879.151531	0.089919	0.248727	19378.566406
5879.152403	0.090000	0.248727	19457.046875
5879.153454	0.089974	0.248727	19551.609375
5879.154491	0.089938	0.248727	19644.875000
5879.155379	0.089908	0.248727	19724.712891
5879.156253	0.089890	0.248727	19803.277344
5880.283654	1.118024	0.169164	557.893860
5880.284647	1.529033	0.169164	2076.223877
5880.285534	1.505735	0.169164	3411.810547
5880.286525	1.463009	0.169164	4861.652344
5880.287580	1.418932	0.169164	6358.625488
5880.288478	1.382153	0.169164	7599.799316
5880.289338	1.347708	0.169164	8758.828125
5880.290433	1.309003	0.169164	10192.185547
5880.291410	1.274509	0.169164	11437.380859
5880.292336	1.243883	0.169164	12589.216797
5880.293214	1.214015	0.169164	13655.122070
5880.294231	1.182436	0.169164	14857.660156
5880.295120	1.153381	0.169164	15883.015625
5880.296035	1.127919	0.169164	16915.060547
5880.296911	1.106213	0.169164	17884.103516
5880.297957	0.979955	0.169164	18909.136719
5880.298851	0.156544	0.169164	19049.087891
5880.299728	0.089828	0.169164	19127.867187
5880.300710	0.089927	0.169164	19216.175781
5880.301661	0.089879	0.169164	19301.650391
5880.302537	0.089974	0.169164	19380.468750
5880.303496	0.089985	0.169164	19466.765625
5880.304509	0.089890	0.169164	19557.824219
5880.305386	0.089923	0.169164	19636.687500
5880.306242	0.089960	0.169164	19713.693359
5880.307297	0.089956	0.169164	19808.597656
5881.169335	1.064183	0.251732	445.892822
5881.170450	1.527506	0.251732	2149.062012
5881.171413	1.500454	0.251732	3593.999268
5881.172337	1.460405	0.251732	4943.413574
5881.173208	1.423550	0.251732	6183.325195
5881.174254	1.382377	0.251732	7629.291016
5881.175138	1.347477	0.251732	8820.460937
5881.176017	1.315258	0.251732	9976.572266
5881.176909	1.282661	0.251732	11120.706055
5881.177939	1.248175	0.251732	12406.326172
5881.178841	1.218219	0.251732	13505.160156
5881.179719	1.189739	0.251732	14549.750977
5881.180712	1.159050	0.251732	15700.687500
5881.181646	1.131145	0.251732	16757.177734
5881.182527	1.110916	0.251732	17735.894531
5881.183509	1.068160	0.251732	18784.828125
5881.184519	0.208184	0.251732	18995.093750
5881.185402	0.089769	0.251732	19074.359375
5881.186266	0.089971	0.251732	19152.093750
5881.187339	0.089952	0.251732	19248.613281
5881.188259	0.089872	0.251732	19331.294922
5881.189127	0.089952	0.251732	19409.373047
5881.190095	0.089901	0.251732	19496.396484
5881.191105	0.089912	0.251732	19587.207031
5881.191978	0.089930	0.251732	19665.716797
5881.192845	0.090022	0.251732	19743.765625
5882.320909	1.122579	0.138875	552.309021
5882.321792	1.526265	0.138875	1900.000732
5882.322660	1.510840	0.138875	3211.409668
5882.323599	1.469956	0.138875	4591.698242
5882.324594	1.428358	0.138875	6012.914551
5882.325477	1.391997	0.138875	7242.047852
5882.326369	1.356277	0.138875	8451.846680
5882.327472	1.317257	0.138875	9904.781250
5882.328370	1.284946	0.138875	11058.663086
5882.329238	1.255463	0.138875	12148.404297
5882.330273	1.220922	0.138875	13412.058594
5882.331240	1.189303	0.138875	14562.114258
5882.332124	1.161211	0.138875	15588.625000
5882.332996	1.134283	0.138875	16577.720703
5882.334113	1.108997	0.138875	17816.470703
5882.335004	1.082303	0.138875	18780.802734
5882.335883	0.305424	0.138875	19049.269531
5882.336966	0.089864	0.138875	19146.593750
5882.337921	0.089941	0.138875	19232.488281
5882.338777	0.089908	0.138875	19309.449219
5882.339817	0.089956	0.138875	19403.003906
5882.340862	0.089916	0.138875	19496.966797
5882.341731	0.089886	0.138875	19575.078125
5882.342626	0.089868	0.138875	19655.509766
5882.343710	0.089945	0.138875	19753.009766
5882.344668	0.089872	0.138875	19839.107422
5883.213332	1.127871	0.239329	561.679749
5883.214339	1.528605	0.239329	2100.984619
5883.215227	1.504138	0.239329	3436.659180
5883.216210	1.461647	0.239329	4873.458008
5883.217261	1.417767	0.239329	6363.531250
5883.218179	1.380546	0.239329	7630.872070
5883.219047	1.346049	0.239329	8799.242187
5883.220143	1.307036	0.239329	10231.753906
5883.221109	1.273312	0.239329	11461.773437
5883.221994	1.243744	0.239329	12562.486328
5883.223006	1.210155	0.239329	13787.163086
5883.224067	1.176401	0.239329	15035.325195
5883.224969	1.148174	0.239329	16070.978516
5883.225868	1.123729	0.239329	17081.210937
5883.226944	1.096604	0.239329	18261.156250
5883.227903	0.744148	0.239329	18974.794922
5883.228762	0.102477	0.239329	19062.822266
5883.229785	0.090011	0.239329	19154.904297
5883.230810	0.089971	0.239329	19247.125000
5883.231688	0.090004	0.239329	19326.148437
5883.232618	0.089908	0.239329	19409.763672
5883.233668	0.089927	0.239329	19504.187500
5883.234598	0.089919	0.239329	19587.812500
5883.235469	0.089956	0.239329	19666.164062
5883.236485	0.089949	0.239329	19757.552734
5883.237520	0.089938	0.239329	19850.638672
5884.353564	1.136971	0.164559	580.992371
5884.354499	1.528451	0.164559	2010.093994
5884.355364	1.507797	0.164559	3314.338135
5884.356412	1.462888	0.164559	4847.444824
5884.357441	1.419697	0.164559	6308.313477
5884.358323	1.383882	0.164559	7528.897461
5884.359304	1.346968	0.164559	8850.273437
5884.360364	1.307867	0.164559	10236.613281
5884.361292	1.275231	0.164559	11420.027344
5884.362156	1.245194	0.164559	12495.875000
5884.363233	1.210312	0.164559	13799.381836
5884.364240	1.177771	0.164559	14985.397461
5884.365115	1.150349	0.164559	15991.953125
5884.366095	1.124334	0.164559	17093.800781
5884.367154	1.097146	0.164559	18255.677734
5884.368060	0.804082	0.164559	18984.175781
5884.368927	0.108428	0.164559	19078.183594
5884.370021	0.089854	0.164559	19176.482422
5884.370985	0.089850	0.164559	19263.097656
5884.371869	0.089934	0.164559	19342.599609
5884.372859	0.090040	0.164559	19431.740234
5884.373917	0.089974	0.164559	19526.933594
5884.374803	0.089905	0.164559	19606.589844
5884.375668	0.089905	0.164559	19684.357422
5884.376771	0.089938	0.164559	19783.558594
5884.377746	0.089894	0.164559	19871.205078
5885.255625	1.069376	0.233315	471.594910
5885.256719	1.527103	0.233315	2142.245850
5885.257677	1.500447	0.233315	3579.673828
5885.258547	1.462251	0.233315	4851.832031
5885.259587	1.418807	0.233315	6327.391602
5885.260617	1.377891	0.233315	7746.619141
5885.261517	1.342972	0.233315	8955.293945
5885.262462	1.308988	0.233315	10192.287109
5885.263514	1.272169	0.233315	11530.609375
5885.264446	1.240679	0.233315	12686.921875
5885.265311	1.211455	0.233315	13734.830078
5885.266379	1.177507	0.233315	14992.408203
5885.267387	1.146215	0.233315	16147.792969
5885.268277	1.123367	0.233315	17147.589844
5885.269250	1.098296	0.233315	18216.232422
5885.270316	0.675055	0.233315	18935.841797
5885.271230	0.095713	0.233315	19023.324219
5885.272127	0.089850	0.233315	19103.919922
5885.273005	0.089890	0.233315	19182.843750
5885.274024	0.089875	0.233315	19274.427734
5885.274916	0.089905	0.233315	19354.623047
5885.275793	0.089963	0.233315	19433.521484
5885.276745	0.090000	0.233315	19519.201172
5885.277715	0.089941	0.233315	19606.445312
5885.278635	0.089916	0.233315	19689.167969
5885.279500	0.089916	0.233315	19766.945312
5886.387197	1.128732	0.162022	550.821045
5886.388094	1.526792	0.162022	1920.353394
5886.389061	1.506929	0.162022	3377.553711
5886.390123	1.460383	0.162022	4928.480469
5886.391045	1.421587	0.162022	6239.183594
5886.391906	1.386097	0.162022	7432.613281
5886.392982	1.345664	0.162022	8880.547852
5886.393992	1.308684	0.162022	10202.318359
5886.394874	1.277494	0.162022	11329.068359
5886.395863	1.244755	0.162022	12560.130859
5886.396905	1.209877	0.162022	13820.822266
5886.397809	1.180137	0.162022	14887.666016
5886.398718	1.151653	0.162022	15934.518555
5886.399596	1.126838	0.162022	16923.882812
5886.400633	1.101768	0.162022	18066.416016
5886.401528	0.961696	0.162022	18927.132812
5886.402414	0.150835	0.162022	19060.773437
5886.403387	0.089843	0.162022	19148.189453
5886.404346	0.089901	0.162022	19234.404297
5886.405264	0.089971	0.162022	19316.998047
5886.406129	0.089930	0.162022	19394.787109
5886.407155	0.089934	0.162022	19487.058594
5886.408037	0.089923	0.162022	19566.371094
5886.408909	0.089949	0.162022	19644.806641
5886.409826	0.089952	0.162022	19727.292969
5886.410815	0.089846	0.162022	19816.150391
5887.299606	1.135514	0.232787	570.027954
5887.300612	1.528385	0.232787	2107.583252
5887.301504	1.503677	0.232787	3448.862793
5887.302488	1.461152	0.232787	4886.636719
5887.303539	1.417430	0.232787	6376.355957
5887.304451	1.380421	0.232787	7635.299805
5887.305317	1.345829	0.232787	8800.787109
5887.306422	1.306842	0.232787	10244.847656
5887.307407	1.272788	0.232787	11498.543945
5887.308272	1.243557	0.232787	12574.220703
5887.309328	1.208141	0.232787	13850.017578
5887.310373	1.174926	0.232787	15077.814453
5887.311266	1.146724	0.232787	16101.838867
5887.312185	1.122876	0.232787	17133.761719
5887.313259	1.095102	0.232787	18309.902344
5887.314217	0.695834	0.232787	18976.511719
5887.315079	0.098481	0.232787	19061.402344
5887.316133	0.089985	0.232787	19156.246094
5887.317143	0.089897	0.232787	19247.042969
5887.318025	0.089905	0.232787	19326.339844
5887.318983	0.090026	0.232787	19412.583984
5887.320030	0.089934	0.232787	19506.744141
5887.320961	0.089934	0.232787	19590.472656
5887.321824	0.089854	0.232787	19668.015625
5887.322887	0.089985	0.232787	19763.669922
5887.323893	0.089927	0.232787	19854.136719
5888.416342	1.180444	0.181555	674.033752
5888.417318	1.528868	0.181555	2166.209229
5888.418195	1.503259	0.181555	3484.567627
5888.419067	1.463221	0.181555	4760.496582
5888.420176	1.419551	0.181555	6334.778320
5888.421067	1.382684	0.181555	7566.750000
5888.421937	1.349315	0.181555	8740.654297
5888.423009	1.309867	0.181555	10144.832031
5888.423993	1.275743	0.181555	11400.163086
5888.424864	1.246480	0.181555	12485.846680
5888.425886	1.212085	0.181555	13724.597656
5888.426935	1.178558	0.181555	14960.905273
5888.427836	1.150129	0.181555	15997.171875
5888.428770	1.125344	0.181555	17048.244141
5888.429836	1.097838	0.181555	18218.539062
5888.430791	0.797867	0.181555	18980.501953
5888.431653	0.108036	0.181555	19073.628906
5888.432704	0.089927	0.181555	19168.142578
5888.433703	0.089934	0.181555	19257.986328
5888.434593	0.089927	0.181555	19338.021484
5888.435548	0.090011	0.181555	19423.982422
5888.436586	0.089971	0.181555	19517.371094
5888.437511	0.089912	0.181555	19600.539062
5888.438369	0.089963	0.181555	19677.728516
5888.439425	0.090073	0.181555	19772.845703
5888.440436	0.089956	0.181555	19863.791016
5889.342982	1.120034	0.219836	561.137085
5889.343938	1.527935	0.219836	2021.842529
5889.344810	1.507042	0.219836	3335.983398
5889.345830	1.462621	0.219836	4827.856445
5889.346874	1.419335	0.219836	6309.642090
5889.347770	1.382900	0.219836	7548.720703
5889.348708	1.347261	0.219836	8812.451172
5889.349778	1.308021	0.219836	10212.034180
5889.350718	1.275106	0.219836	11410.633789
5889.351585	1.245502	0.219836	12490.483398
5889.352641	1.210635	0.219836	13768.914062
5889.353661	1.177863	0.219836	14970.333984
5889.354546	1.150283	0.219836	15988.334961
5889.355423	1.126718	0.219836	16976.466797
5889.356410	1.102515	0.219836	18064.648437
5889.357366	0.913484	0.219836	18937.939453
5889.358272	0.128379	0.219836	19054.250000
5889.359148	0.089934	0.219836	19133.033203
5889.360165	0.090004	0.219836	19224.566406
5889.361066	0.089989	0.219836	19305.646484
5889.361939	0.089938	0.219836	19384.162109
5889.362849	0.090000	0.219836	19466.062500
5889.363856	0.089905	0.219836	19556.595703
5889.364735	0.089982	0.219836	19635.689453
5889.365594	0.089963	0.219836	19712.968750
5889.366715	0.089952	0.219836	19813.804687
5890.455619	1.184315	0.172551	665.585083
5890.456677	1.528000	0.172551	2282.209473
5890.457568	1.499209	0.172551	3618.004639
5890.458462	1.459094	0.172551	4922.434570
5890.459556	1.414266	0.172551	6469.642090
5890.460514	1.376550	0.172551	7788.377441
5890.461383	1.343134	0.172551	8955.560547
5890.462405	1.306025	0.172551	10290.318359
5890.463448	1.269954	0.172551	11614.879883
5890.464341	1.239778	0.172551	12722.001953
5890.465282	1.208690	0.172551	13859.378906
5890.466351	1.174409	0.172551	15114.822266
5890.467293	1.145409	0.172551	16193.796875
5890.468158	1.122711	0.172551	17164.941406
5890.469222	1.095011	0.172551	18330.033203
5890.470237	0.629513	0.172551	18968.988281
5890.471121	0.094779	0.172551	19052.773437
5890.472098	0.089916	0.172551	19140.621094
5890.473143	0.090029	0.172551	19234.701172
5890.474055	0.089923	0.172551	19316.710937
5890.474916	0.089971	0.172551	19394.175781
5890.476002	0.090026	0.172551	19491.943359
5890.476996	0.089952	0.172551	19581.355469
5890.477875	0.089985	0.172551	19660.453125
5890.478855	0.089996	0.172551	19748.650391
5890.479916	0.089960	0.172551	19844.097656
5891.375625	1.090624	0.233355	548.583740
5891.376665	1.527883	0.233355	2137.582520
5891.377559	1.502249	0.233355	3480.592773
5891.378426	1.464272	0.233355	4750.117187
5891.379452	1.421272	0.233355	6208.342285
5891.380424	1.382322	0.233355	7551.958984
5891.381305	1.348194	0.233355	8739.718750
5891.382208	1.314543	0.233355	9926.751953
5891.383297	1.277417	0.233355	11317.859375
5891.384193	1.246531	0.233355	12434.750977
5891.385118	1.216066	0.233355	13559.611328
5891.386181	1.181462	0.233355	14815.505859
5891.387132	1.152030	0.233355	15911.085937
5891.388003	1.127391	0.233355	16893.042969
5891.389050	1.101705	0.233355	18046.529297
5891.390062	0.865778	0.233355	18922.695312
5891.390955	0.118623	0.233355	19028.625000
5891.391933	0.089864	0.233355	19116.511719
5891.392974	0.090033	0.233355	19210.236328
5891.393897	0.089941	0.233355	19293.251953
5891.394757	0.089989	0.233355	19370.642578
5891.395790	0.089971	0.233355	19463.582031
5891.396814	0.089982	0.233355	19555.722656
5891.397701	0.089908	0.233355	19635.470703
5891.398660	0.090018	0.233355	19721.798828
5891.399710	0.089949	0.233355	19816.244141
5892.499960	1.118829	0.169152	531.443970
5892.500847	1.525532	0.169152	1884.591064
5892.501726	1.510503	0.169152	3212.323242
5892.502703	1.469103	0.169152	4647.636719
5892.503675	1.427432	0.169152	6035.100586
5892.504552	1.391517	0.169152	7255.461426
5892.505492	1.354907	0.169152	8529.074219
5892.506547	1.316451	0.169152	9917.930664
5892.507434	1.284866	0.169152	11057.606445
5892.508293	1.255009	0.169152	12135.659180
5892.509324	1.220907	0.169152	13394.414062
5892.510286	1.189296	0.169152	14538.516602
5892.511164	1.162127	0.169152	15558.863281
5892.512069	1.134500	0.169152	16585.585937
5892.513154	1.109440	0.169152	17789.328125
5892.514046	1.083724	0.169152	18756.009766
5892.514941	0.331564	0.169152	19052.759766
5892.516019	0.089886	0.169152	19149.658203
5892.516973	0.089864	0.169152	19235.388672
5892.517837	0.089908	0.169152	19313.070312
5892.518876	0.090011	0.169152	19406.591797
5892.519896	0.089923	0.169152	19498.312500
5892.520777	0.089967	0.169152	19577.574219
5892.521711	0.089989	0.169152	19661.623047
5892.522764	0.090018	0.169152	19756.412109
5892.523707	0.089989	0.169152	19841.271484
5892.524569	0.090029	0.169152	19918.876953
5893.408246	1.083739	0.235502	525.613464
5893.409323	1.526741	0.235502	2169.913086
5893.410263	1.499260	0.235502	3579.217773
5893.411139	1.460867	0.235502	4858.937012
5893.412174	1.417485	0.235502	6326.034180
5893.413200	1.376598	0.235502	7738.423828
5893.414095	1.342559	0.235502	8940.013672
5893.415063	1.307743	0.235502	10205.909180
5893.416124	1.270474	0.235502	11553.881836
5893.417054	1.239141	0.235502	12706.282227
5893.417925	1.209569	0.235502	13759.816406
5893.419003	1.175504	0.235502	15027.009766
5893.419995	1.144596	0.235502	16162.449219
5893.420888	1.122001	0.235502	17164.396484
5893.421864	1.096831	0.235502	18234.904297
5893.422925	0.646736	0.235502	18921.091797
5893.423833	0.094113	0.235502	19006.546875
5893.424693	0.089861	0.235502	19083.828125
5893.425778	0.089949	0.235502	19181.421875
5893.426769	0.089813	0.235502	19270.427734
5893.427649	0.089868	0.235502	19349.511719
5893.428624	0.089868	0.235502	19437.132812
5893.429682	0.089846	0.235502	19532.189453
5893.430566	0.089875	0.235502	19611.638672
5893.431425	0.089916	0.235502	19688.876953
5893.432516	0.089901	0.235502	19786.958984
5894.541877	1.165060	0.160394	638.452759
5894.542936	1.527942	0.160394	2256.542969
5894.543822	1.499751	0.160394	3585.322266
5894.544725	1.459647	0.160394	4903.383789
5894.545814	1.414970	0.160394	6444.285645
5894.546769	1.376829	0.160394	7759.156738
5894.547641	1.343353	0.160394	8930.560547
5894.548673	1.306154	0.160394	10278.510742
5894.549705	1.270313	0.160394	11589.473633
5894.550605	1.239727	0.160394	12705.227539
5894.551549	1.208610	0.160394	13846.155273
5894.552613	1.174384	0.160394	15095.699219
5894.553555	1.145325	0.160394	16174.594727
5894.554424	1.122491	0.160394	17150.039062
5894.555505	1.094780	0.160394	18333.496094
5894.556508	0.630161	0.160394	18965.546875
5894.557396	0.094852	0.160394	19049.775391
5894.558376	0.089905	0.160394	19137.882812
5894.559412	0.089956	0.160394	19231.078125
5894.560322	0.089897	0.160394	19312.884766
5894.561180	0.089923	0.160394	19390.039062
5894.562248	0.090015	0.160394	19486.173828
5894.563243	0.089905	0.160394	19575.628906
5894.564115	0.089890	0.160394	19654.013672
5894.565090	0.089974	0.160394	19741.738281
5894.566141	0.089956	0.160394	19836.281250
5895.441410	1.085277	0.257215	539.382751
5895.442468	1.526960	0.257215	2154.906982
5895.443421	1.499103	0.257215	3583.551758
5895.444286	1.460779	0.257215	4847.125488
5895.445351	1.416903	0.257215	6356.127441
5895.446362	1.376411	0.257215	7747.679199
5895.447252	1.342295	0.257215	8942.321289
5895.448224	1.307633	0.257215	10213.340820
5895.449276	1.270734	0.257215	11550.152344
5895.450192	1.239704	0.257215	12685.721680
5895.451052	1.209932	0.257215	13726.262695
5895.452129	1.176405	0.257215	14993.250977
5895.453132	1.145427	0.257215	16142.114258
5895.454011	1.122795	0.257215	17129.050781
5895.455001	1.097512	0.257215	18215.587891
5895.456049	0.675857	0.257215	18923.886719
5895.456941	0.095955	0.257215	19009.478516
5895.457806	0.089872	0.257215	19087.216797
5895.458885	0.090062	0.257215	19184.394531
5895.459880	0.089952	0.257215	19273.896484
5895.460765	0.089967	0.257215	19353.517578
5895.461742	0.090022	0.257215	19441.468750
5895.462793	0.089901	0.257215	19535.955078
5895.463696	0.090000	0.257215	19617.224609
5895.464568	0.089967	0.257215	19695.675781
5895.465432	0.089989	0.257215	19773.425781
5896.582154	1.120067	0.162976	563.393799
5896.583110	1.528085	0.162976	2024.242798
5896.583992	1.506310	0.162976	3352.808105
5896.585013	1.462592	0.162976	4846.114258
5896.586057	1.419144	0.162976	6327.701172
5896.586948	1.382373	0.162976	7559.395508
5896.587837	1.347154	0.162976	8757.015625
5896.588934	1.308340	0.162976	10192.264648
5896.589883	1.275216	0.162976	11402.444336
5896.590749	1.245762	0.162976	12481.273437
5896.591782	1.211613	0.162976	13732.869141
5896.592814	1.178818	0.162976	14949.410156
5896.593694	1.151199	0.162976	15962.464844
5896.594627	1.125773	0.162976	17012.810547
5896.595711	1.098285	0.162976	18203.351562
5896.596639	0.818778	0.162976	18963.177734
5896.597510	0.111548	0.162976	19060.335937
5896.598541	0.089993	0.162976	19153.119141
5896.599565	0.089912	0.162976	19245.189453
5896.600455	0.089875	0.162976	19325.177734
5896.601407	0.089967	0.162976	19410.826172
5896.602460	0.090022	0.162976	19505.619141
5896.603379	0.089960	0.162976	19588.292969
5896.604299	0.089905	0.162976	19671.005859
5896.605163	0.089989	0.162976	19748.755859
5896.606189	0.089901	0.162976	19840.994141
5897.479171	1.083940	0.233633	539.802307
5897.480097	1.526887	0.233633	1953.699951
5897.481031	1.505581	0.233633	3359.912598
5897.481902	1.465898	0.233633	4636.709961
5897.482955	1.423315	0.233633	6135.460937
5897.483851	1.386995	0.233633	7378.208008
5897.484730	1.353036	0.233633	8567.526367
5897.485747	1.316572	0.233633	9906.480469
5897.486682	1.282808	0.233633	11105.905273
5897.487604	1.251387	0.233633	12259.683594
5897.488464	1.221643	0.233633	13310.296875
5897.489489	1.188911	0.233633	14528.930664
5897.490392	1.160750	0.233633	15577.087891
5897.491263	1.134152	0.233633	16564.933594
5897.492338	1.109081	0.233633	17757.195312
5897.493264	1.079553	0.233633	18756.861328
5897.494151	0.295756	0.233633	19019.197266
5897.495118	0.090172	0.233633	19106.394531
5897.496135	0.089945	0.233633	19197.869141
5897.497020	0.090007	0.233633	19277.525391
5897.497882	0.089993	0.233633	19355.099609
5897.498949	0.090033	0.233633	19451.164062
5897.499878	0.089963	0.233633	19534.740234
5897.500737	0.089938	0.233633	19611.996094
5897.501782	0.090103	0.233633	19706.152344
5897.502806	0.089993	0.233633	19798.304687
5898.615827	1.124454	0.153220	568.973877
5898.616709	1.526711	0.153220	1915.533447
5898.617590	1.507090	0.153220	3243.279541
5898.618713	1.460204	0.153220	4883.088379
5898.619668	1.420518	0.153220	6239.682617
5898.620582	1.383999	0.153220	7504.657715
5898.621463	1.349630	0.153220	8693.681641
5898.622502	1.312482	0.153220	10057.350586
5898.623402	1.280402	0.153220	11209.711914
5898.624280	1.250618	0.153220	12307.753906
5898.625165	1.219596	0.153220	13387.096680
5898.626211	1.186512	0.153220	14628.188477
5898.627097	1.158607	0.153220	15654.714844
5898.627973	1.132793	0.153220	16647.041016
5898.628963	1.109777	0.153220	17745.720703
5898.629894	1.081816	0.153220	18752.892578
5898.630781	0.307288	0.153220	19025.457031
5898.631763	0.090201	0.153220	19114.035156
5898.632771	0.089941	0.153220	19204.695312
5898.633668	0.089971	0.153220	19285.398437
5898.634526	0.089949	0.153220	19362.574219
5898.635600	0.089996	0.153220	19459.230469
5898.636516	0.089949	0.153220	19541.623047
5898.637386	0.089854	0.153220	19619.794922
5898.638366	0.090037	0.153220	19708.031250
5898.639385	0.089894	0.153220	19799.632812
5899.522072	1.129732	0.244191	570.514404
5899.523006	1.527202	0.244191	1996.921143
5899.523867	1.506888	0.244191	3294.352051
5899.524923	1.461094	0.244191	4837.267090
5899.525973	1.418203	0.244191	6326.380371
5899.526849	1.382216	0.244191	7537.201172
5899.527813	1.345562	0.244191	8834.322266
5899.528882	1.306637	0.244191	10231.117187
5899.529806	1.274125	0.244191	11408.408203
5899.530676	1.244004	0.244191	12490.691406
5899.531759	1.208690	0.244191	13799.703125
5899.532753	1.176570	0.244191	14969.213867
5899.533653	1.149071	0.244191	16003.377930
5899.534639	1.123242	0.244191	17110.894531
5899.535704	1.095721	0.244191	18277.837891
5899.536610	0.770966	0.244191	18976.332031
5899.537472	0.104436	0.244191	19066.355469
5899.538573	0.089919	0.244191	19165.357422
5899.539533	0.089930	0.244191	19251.691406
5899.540402	0.089875	0.244191	19329.792969
5899.541485	0.089971	0.244191	19427.230469
5899.542510	0.089883	0.244191	19519.359375
5899.543389	0.089938	0.244191	19598.414062
5899.544319	0.090015	0.244191	19682.126953
5899.545377	0.089985	0.244191	19777.332031
5899.546310	0.089905	0.244191	19861.212891
5900.649409	1.051234	0.168354	452.030670
5900.650280	1.522130	0.168354	1777.806030
5900.651289	1.507258	0.168354	3298.629639
5900.652343	1.462273	0.168354	4839.865234
5900.653234	1.424322	0.168354	6108.936523
5900.654142	1.386903	0.168354	7368.244629
5900.655225	1.345811	0.168354	8825.757812
5900.656182	1.311075	0.168354	10080.457031
5900.657053	1.280039	0.168354	11195.371094
5900.658112	1.244645	0.168354	12513.450195
5900.659150	1.209899	0.168354	13769.325195
5900.660049	1.180961	0.168354	14831.008789
5900.661004	1.151832	0.168354	15931.008789
5900.662045	1.123744	0.168354	17100.826172
5900.662972	1.100211	0.168354	18120.722656
5900.663839	0.915703	0.168354	18914.636719
5900.664913	0.112321	0.168354	19035.269531
5900.665904	0.089795	0.168354	19124.255859
5900.666780	0.089901	0.168354	19203.009766
5900.667747	0.089978	0.168354	19290.017578
5900.668791	0.089890	0.168354	19383.863281
5900.669707	0.089912	0.168354	19466.222656
5900.670563	0.089897	0.168354	19543.175781
5900.671610	0.090029	0.168354	19637.435547
5900.672618	0.089861	0.168354	19728.015625
5900.673504	0.089799	0.168354	19807.578125
5901.565908	1.088097	0.222732	479.850708
5901.566792	1.523408	0.222732	1826.543579
5901.567804	1.506174	0.222732	3350.791992
5901.568870	1.460892	0.222732	4908.103027
5901.569758	1.422616	0.222732	6171.385742
5901.570634	1.385845	0.222732	7385.385742
5901.571725	1.345254	0.222732	8853.057617
5901.572684	1.310171	0.222732	10109.511719
5901.573552	1.279768	0.222732	11220.350586
5901.574586	1.245015	0.222732	12507.695312
5901.575624	1.210565	0.222732	13764.261719
5901.576502	1.181752	0.222732	14801.839844
5901.577431	1.152664	0.222732	15872.664062
5901.578510	1.123762	0.222732	17085.203125
5901.579459	1.099358	0.222732	18128.494141
5901.580328	0.925492	0.222732	18932.746094
5901.581367	0.114016	0.222732	19051.208984
5901.582393	0.089799	0.222732	19143.341797
5901.583286	0.089963	0.222732	19223.679687
5901.584231	0.089912	0.222732	19308.646484
5901.585287	0.089960	0.222732	19403.644531
5901.586217	0.089912	0.222732	19487.263672
5901.587077	0.090018	0.222732	19564.679687
5901.588146	0.089974	0.222732	19660.861328
5901.589148	0.089883	0.222732	19750.923828
5901.590040	0.089982	0.222732	19831.187500
5902.680001	1.058738	0.162884	457.374695
5902.680862	1.521068	0.162884	1767.014404
5902.681954	1.503816	0.162884	3409.181396
5902.682875	1.463914	0.162884	4757.445801
5902.683751	1.425579	0.162884	6006.252930
5902.684869	1.382069	0.162884	7551.406250
5902.685838	1.344518	0.162884	8854.244141
5902.686723	1.312617	0.162884	10015.910156
5902.687734	1.277069	0.162884	11307.027344
5902.688801	1.241477	0.162884	12631.683594
5902.689694	1.211111	0.162884	13713.205078
5902.690598	1.181510	0.162884	14781.290039
5902.691692	1.148423	0.162884	16037.665039
5902.692653	1.123235	0.162884	17117.093750
5902.693525	1.100486	0.162884	18076.716797
5902.694582	0.782212	0.162884	18903.515625
5902.695613	0.096753	0.162884	19003.267578
5902.696501	0.089832	0.162884	19083.037109
5902.697450	0.089952	0.162884	19168.402344
5902.698500	0.089963	0.162884	19262.863281
5902.699415	0.089960	0.162884	19345.175781
5902.700274	0.089938	0.162884	19422.431641
5902.701331	0.089971	0.162884	19517.531250
5902.702341	0.089912	0.162884	19608.341797
5902.703219	0.089883	0.162884	19687.259766
5902.704205	0.089945	0.162884	19775.945312
5903.603642	1.063759	0.223683	449.969879
5903.604738	1.526140	0.223683	2122.619385
5903.605743	1.497601	0.223683	3627.708496
5903.606637	1.459105	0.223683	4932.148437
5903.607627	1.417899	0.223683	6335.868652
5903.608684	1.376074	0.223683	7790.378906
5903.609578	1.341266	0.223683	8989.470703
5903.610472	1.307952	0.223683	10158.779297
5903.611568	1.270617	0.223683	11551.375000
5903.612534	1.238577	0.223683	12747.839844
5903.613404	1.209137	0.223683	13799.789062
5903.614443	1.175958	0.223683	15021.609375
5903.615469	1.144321	0.223683	16195.683594
5903.616362	1.121715	0.223683	17197.375000
5903.617307	1.097282	0.223683	18234.306641
5903.618375	0.646150	0.223683	18924.394531
5903.619297	0.094219	0.223683	19011.263672
5903.620221	0.089894	0.223683	19094.326172
5903.621086	0.089879	0.223683	19172.072266
5903.622116	0.090007	0.223683	19264.779297
5903.622991	0.089872	0.223683	19343.417969
5903.623865	0.089908	0.223683	19421.998047
5903.624782	0.090000	0.223683	19504.527344
5903.625761	0.089894	0.223683	19592.533203
5903.626658	0.089861	0.223683	19673.138672
5903.627549	0.089919	0.223683	19753.257812
5904.714305	1.161852	0.166759	635.532898
5904.715356	1.527502	0.166759	2240.937988
5904.716232	1.499875	0.166759	3554.828857
5904.717179	1.458900	0.166759	4936.407227
5904.718250	1.414043	0.166759	6450.847168
5904.719186	1.376884	0.166759	7739.610352
5904.720053	1.343152	0.166759	8904.123047
5904.721092	1.305743	0.166759	10260.790039
5904.722112	1.270411	0.166759	11556.609375
5904.723002	1.240547	0.166759	12660.696289
5904.723962	1.208767	0.166759	13821.113281
5904.725007	1.175127	0.166759	15049.121094
5904.725934	1.146401	0.166759	16111.834961
5904.726806	1.123162	0.166759	17091.232422
5904.727886	1.095447	0.166759	18274.314453
5904.728887	0.674762	0.166759	18949.751953
5904.729778	0.095900	0.166759	19035.199219
5904.730776	0.089952	0.166759	19124.972656
5904.731821	0.089883	0.166759	19218.900391
5904.732721	0.089967	0.166759	19299.871094
5904.733583	0.089963	0.166759	19377.419922
5904.734670	0.089817	0.166759	19475.050781
5904.735630	0.089897	0.166759	19561.351562
5904.736500	0.089923	0.166759	19639.583984
5904.737521	0.089985	0.166759	19731.458984
5904.738561	0.089894	0.166759	19824.949219
5905.644633	1.189457	0.224565	680.369263
5905.645603	1.527975	0.224565	2162.504883
5905.646477	1.502358	0.224565	3475.565918
5905.647354	1.462577	0.224565	4758.246094
5905.648481	1.418236	0.224565	6356.598145
5905.649361	1.381915	0.224565	7572.683594
5905.650223	1.348425	0.224565	8735.026367
5905.651248	1.310863	0.224565	10078.661133
5905.652227	1.276831	0.224565	11328.678711
5905.653098	1.247318	0.224565	12415.092773
5905.654142	1.212374	0.224565	13680.811523
5905.655192	1.179064	0.224565	14918.828125
5905.656086	1.150913	0.224565	15947.744141
5905.657010	1.125802	0.224565	16987.984375
5905.658081	1.098501	0.224565	18164.478516
5905.659035	0.836656	0.224565	18962.648437
5905.659905	0.113749	0.224565	19061.609375
5905.660968	0.089927	0.224565	19157.201172
5905.661989	0.089843	0.224565	19248.929687
5905.662881	0.089927	0.224565	19329.144531
5905.663827	0.089930	0.224565	19414.218750
5905.664860	0.089960	0.224565	19507.146484
5905.665785	0.089927	0.224565	19590.328125
5905.666644	0.089912	0.224565	19667.562500
5905.667708	0.089945	0.224565	19763.263672
5905.668710	0.089905	0.224565	19853.347656
5906.751001	1.135723	0.161268	576.947083
5906.752001	1.527968	0.161268	2104.914551
5906.752883	1.503776	0.161268	3431.244629
5906.753878	1.461064	0.161268	4885.003906
5906.754936	1.417028	0.161268	6384.219238
5906.755837	1.380022	0.161268	7627.619141
5906.756700	1.345609	0.161268	8788.879883
5906.757783	1.307798	0.161268	10205.224609
5906.758786	1.272480	0.161268	11481.522461
5906.759665	1.242524	0.161268	12573.701172
5906.760542	1.213601	0.161268	13638.029297
5906.761545	1.181785	0.161268	14823.359375
5906.762469	1.152030	0.161268	15887.834961
5906.763389	1.127098	0.161268	16924.765625
5906.764261	1.104884	0.161268	17888.224609
5906.765319	0.958121	0.161268	18901.917969
5906.766221	0.142419	0.161268	19030.380859
5906.767097	0.089846	0.161268	19109.085937
5906.768091	0.089952	0.161268	19198.498047
5906.769018	0.089894	0.161268	19281.830078
5906.769895	0.089916	0.161268	19360.685547
5906.770857	0.090026	0.161268	19447.291016
5906.771880	0.089901	0.161268	19539.259766
5906.772758	0.089897	0.161268	19618.189453
5906.773625	0.089930	0.161268	19696.158203
5906.774661	0.089971	0.161268	19789.367187
5907.681301	1.134543	0.229000	574.078979
5907.682231	1.527045	0.229000	1994.230469
5907.683094	1.506943	0.229000	3294.722656
5907.684152	1.461354	0.229000	4840.834961
5907.685159	1.419478	0.229000	6270.249023
5907.686045	1.383527	0.229000	7496.053711
5907.687017	1.346829	0.229000	8805.170898
5907.688058	1.308779	0.229000	10167.610352
5907.688976	1.276333	0.229000	11339.284180
5907.689838	1.246337	0.229000	12413.626953
5907.690921	1.211129	0.229000	13725.279297
5907.691935	1.178372	0.229000	14920.148437
5907.692815	1.150671	0.229000	15932.739258
5907.693798	1.124696	0.229000	17038.316406
5907.694855	1.097622	0.229000	18198.503906
5907.695762	0.837286	0.229000	18957.921875
5907.696635	0.113903	0.229000	19057.359375
5907.697737	0.089952	0.229000	19156.486328
5907.698712	0.089993	0.229000	19244.228516
5907.699579	0.089930	0.229000	19322.197266
5907.700623	0.090044	0.229000	19416.203125
5907.701668	0.089996	0.229000	19510.250000
5907.702556	0.089974	0.229000	19590.146484
5907.703461	0.089982	0.229000	19671.580078
5907.704530	0.090026	0.229000	19767.818359
5907.705489	0.089934	0.229000	19854.064453
5908.785613	1.075422	0.171875	471.034973
5908.786489	1.522672	0.171875	1804.895752
5908.787509	1.506676	0.171875	3341.705322
5908.788508	1.462775	0.171875	4803.017090
5908.789402	1.425282	0.171875	6077.219238
5908.790264	1.388998	0.171875	7274.535156
5908.791360	1.348579	0.171875	8752.578125
5908.792259	1.314796	0.171875	9934.580078
5908.793133	1.284177	0.171875	11056.951172
5908.794117	1.250669	0.171875	12287.609375
5908.795126	1.216688	0.171875	13515.248047
5908.796019	1.187864	0.171875	14576.010742
5908.797008	1.157197	0.171875	15720.478516
5908.798081	1.127604	0.171875	16930.396484
5908.798990	1.104628	0.171875	17934.503906
5908.799855	0.991798	0.171875	18792.410156
5908.800973	0.137010	0.171875	18945.587891
5908.801942	0.089883	0.171875	19032.683594
5908.802809	0.089934	0.171875	19110.656250
5908.803861	0.089971	0.171875	19205.304687
5908.804892	0.089952	0.171875	19298.044922
5908.805779	0.089993	0.171875	19377.869141
5908.806696	0.090000	0.171875	19460.398437
5908.807739	0.089985	0.171875	19554.253906
5908.808684	0.089945	0.171875	19639.251953
5908.809548	0.089908	0.171875	19716.933594
5909.720611	1.141890	0.212750	586.931274
5909.721636	1.527587	0.212750	2152.707520
5909.722518	1.502043	0.212750	3477.509766
5909.723482	1.460735	0.212750	4885.658203
5909.724533	1.416910	0.212750	6374.831055
5909.725447	1.379388	0.212750	7635.591797
5909.726352	1.344628	0.212750	8852.479492
5909.727230	1.312108	0.212750	10004.510742
5909.728253	1.276783	0.212750	11310.660156
5909.729154	1.246370	0.212750	12433.638672
5909.730036	1.216769	0.212750	13506.829102
5909.731009	1.186322	0.212750	14661.120117
5909.731983	1.155033	0.212750	15786.122070
5909.732911	1.128754	0.212750	16833.605469
5909.733781	1.108022	0.212750	17797.585937
5909.734806	1.041449	0.212750	18865.070312
5909.735691	0.209495	0.212750	19050.472656
5909.736563	0.089868	0.212750	19128.837891
5909.737483	0.090007	0.212750	19211.644531
5909.738470	0.089945	0.212750	19300.419922
5909.739369	0.089912	0.212750	19381.250000
5909.740238	0.090029	0.212750	19459.486328
5909.741334	0.090037	0.212750	19558.166016
5909.742244	0.089949	0.212750	19640.019531
5909.743111	0.089934	0.212750	19717.992187
5909.744175	0.090059	0.212750	19813.814453
5910.821381	1.122708	0.162110	555.740234
5910.822260	1.525591	0.162110	1896.734619
5910.823193	1.507130	0.162110	3302.887207
5910.824257	1.461229	0.162110	4857.635254
5910.825203	1.421649	0.162110	6202.515137
5910.826068	1.386134	0.162110	7401.520996
5910.827115	1.346400	0.162110	8811.202148
5910.828131	1.309354	0.162110	10141.505859
5910.829018	1.278135	0.162110	11275.210937
5910.829991	1.245919	0.162110	12487.490234
5910.831041	1.210543	0.162110	13758.560547
5910.831968	1.180543	0.162110	14852.923828
5910.832832	1.152960	0.162110	15849.081055
5910.833926	1.124370	0.162110	17079.142578
5910.834927	1.098223	0.162110	18178.462891
5910.835807	0.885824	0.162110	18957.988281
5910.836805	0.119495	0.162110	19077.244141
5910.837848	0.089890	0.162110	19171.000000
5910.838746	0.089982	0.162110	19251.802734
5910.839614	0.090026	0.162110	19329.945312
5910.840715	0.090066	0.162110	19429.107422
5910.841681	0.089930	0.162110	19515.980469
5910.842561	0.090040	0.162110	19595.216797
5910.843545	0.090044	0.162110	19683.820312
5910.844597	0.089989	0.162110	19778.488281
5910.845486	0.089894	0.162110	19858.404297
5911.756846	1.163990	0.222914	627.390869
5911.757904	1.527220	0.222914	2243.190186
5911.758778	1.500000	0.222914	3554.190186
5911.759679	1.459893	0.222914	4869.553223
5911.760764	1.415156	0.222914	6404.998047
5911.761722	1.377349	0.222914	7724.498047
5911.762595	1.343899	0.222914	8897.721680
5911.763612	1.306729	0.222914	10226.665039
5911.764655	1.270664	0.222914	11551.967773
5911.765545	1.240785	0.222914	12656.266602
5911.766479	1.209902	0.222914	13786.315430
5911.767549	1.175273	0.222914	15043.858398
5911.768494	1.146566	0.222914	16127.363281
5911.769361	1.123564	0.222914	17101.494141
5911.770419	1.096183	0.222914	18261.255859
5911.771423	0.698331	0.222914	18962.380859
5911.772307	0.097841	0.222914	19048.871094
5911.773276	0.090073	0.222914	19136.152344
5911.774309	0.090059	0.222914	19229.183594
5911.775226	0.089989	0.222914	19311.703125
5911.776087	0.090033	0.222914	19389.220703
5911.777167	0.090117	0.222914	19486.546875
5911.778166	0.090004	0.222914	19576.460937
5911.779041	0.089982	0.222914	19655.195312
5911.780008	0.090092	0.222914	19742.314453
5911.781071	0.090066	0.222914	19838.054687
5912.858582	1.090576	0.167899	480.944092
5912.859457	1.523031	0.167899	1813.596191
5912.860318	1.510422	0.167899	3114.069824
5912.861384	1.466407	0.167899	4677.260254
5912.862275	1.428834	0.167899	5950.351562
5912.863143	1.393250	0.167899	7159.692383
5912.864135	1.355068	0.167899	8503.919922
5912.865069	1.319802	0.167899	9736.615234
5912.865989	1.287671	0.167899	10921.272461
5912.866870	1.256975	0.167899	12028.667969
5912.867914	1.222668	0.167899	13305.133789
5912.868816	1.193372	0.167899	14381.554687
5912.869686	1.165111	0.167899	15395.201172
5912.870776	1.133467	0.167899	16630.679687
5912.871727	1.110989	0.167899	17687.230469
5912.872608	1.086013	0.167899	18644.007812
5912.873568	0.409149	0.167899	19036.791016
5912.874581	0.090044	0.167899	19128.005859
5912.875471	0.089993	0.167899	19208.099609
5912.876331	0.090033	0.167899	19285.527344
5912.877383	0.090099	0.167899	19380.310547
5912.878317	0.090022	0.167899	19464.390625
5912.879179	0.090048	0.167899	19542.011719
5912.880198	0.090165	0.167899	19633.890625
5912.881223	0.089956	0.167899	19726.095703
5912.882109	0.090007	0.167899	19805.841797
5912.883043	0.090117	0.167899	19890.011719
5913.791436	1.062345	0.219147	463.182373
5913.792301	1.521720	0.219147	1779.470093
5913.793334	1.506200	0.219147	3335.374512
5913.794380	1.461321	0.219147	4863.916016
5913.795254	1.423385	0.219147	6107.954590
5913.796170	1.385907	0.219147	7377.445312
5913.797245	1.344946	0.219147	8823.262695
5913.798195	1.310614	0.219147	10068.345703
5913.799069	1.279841	0.219147	11186.926758
5913.800089	1.245330	0.219147	12457.163086
5913.801127	1.210895	0.219147	13714.072266
5913.802017	1.182213	0.219147	14766.242187
5913.802970	1.153066	0.219147	15865.114258
5913.804032	1.123989	0.219147	17058.791016
5913.804973	1.100156	0.219147	18094.037109
5913.805839	0.926927	0.219147	18896.755859
5913.806925	0.110219	0.219147	19016.453125
5913.807918	0.089963	0.219147	19105.787109
5913.808806	0.089989	0.219147	19185.697266
5913.809767	0.090000	0.219147	19272.187500
5913.810804	0.089996	0.219147	19365.513672
5913.811709	0.089982	0.219147	19446.947266
5913.812638	0.089901	0.219147	19530.464844
5913.813503	0.090026	0.219147	19608.337891
5913.814529	0.090000	0.219147	19700.677734
5913.815399	0.089945	0.219147	19778.929687
5914.895287	1.049524	0.164362	441.849579
5914.896242	1.520911	0.164362	1894.319214
5914.897299	1.502036	0.164362	3481.971191
5914.898235	1.461145	0.164362	4849.603027
5914.899103	1.423751	0.164362	6085.418945
5914.900166	1.381769	0.164362	7554.239258
5914.901171	1.343243	0.164362	8904.199219
5914.902063	1.310852	0.164362	10073.479492
5914.903063	1.276282	0.164362	11349.761719
5914.904107	1.241078	0.164362	12645.447266
5914.905012	1.210715	0.164362	13741.144531
5914.905876	1.181521	0.164362	14761.978516
5914.906963	1.149163	0.164362	16011.118164
5914.907965	1.122396	0.164362	17135.759766
5914.908851	1.099310	0.164362	18109.748047
5914.909870	0.789653	0.164362	18914.404297
5914.910922	0.098661	0.164362	19018.195312
5914.911801	0.089875	0.164362	19097.195312
5914.912683	0.090066	0.164362	19176.632812
5914.913776	0.090029	0.164362	19275.035156
5914.914733	0.089956	0.164362	19361.123047
5914.915599	0.090040	0.164362	19439.097656
5914.916628	0.090110	0.164362	19531.820312
5914.917669	0.090000	0.164362	19625.509766
5914.918558	0.089967	0.164362	19705.490234
5914.919499	0.090048	0.164362	19790.224609
5915.829180	1.050469	0.214688	445.398773
5915.830209	1.523793	0.214688	2013.381592
5915.831191	1.501446	0.214688	3487.802002
5915.832078	1.462797	0.214688	4785.302734
5915.832944	1.425282	0.214688	6019.596680
5915.834036	1.383296	0.214688	7530.155762
5915.834931	1.348030	0.214688	8736.642578
5915.835801	1.315887	0.214688	9881.464844
5915.836801	1.281174	0.214688	11162.638672
5915.837798	1.246820	0.214688	12405.718750
5915.838692	1.217043	0.214688	13493.755859
5915.839685	1.185282	0.214688	14670.740234
5915.840741	1.152470	0.214688	15887.748047
5915.841641	1.127421	0.214688	16902.425781
5915.842506	1.105254	0.214688	17858.470703
5915.843625	0.894661	0.214688	18859.595703
5915.844592	0.118363	0.214688	18974.052734
5915.845457	0.089927	0.214688	19051.839844
5915.846496	0.090048	0.214688	19145.398437
5915.847530	0.090011	0.214688	19238.470703
5915.848429	0.090114	0.214688	19319.482422
5915.849349	0.090015	0.214688	19402.296875
5915.850407	0.090044	0.214688	19497.562500
5915.851339	0.090011	0.214688	19581.453125
5915.852204	0.090033	0.214688	19659.332031
5915.853258	0.090066	0.214688	19754.261719
5916.934158	1.148167	0.157820	580.972290
5916.935045	1.526060	0.157820	1934.587036
5916.936003	1.505105	0.157820	3376.477539
5916.937056	1.459406	0.157820	4913.231445
5916.937995	1.420144	0.157820	6246.746582
5916.938867	1.384244	0.157820	7453.807617
5916.939941	1.343544	0.157820	8896.773437
5916.940950	1.306816	0.157820	10215.351562
5916.941849	1.275652	0.157820	11362.162109
5916.942821	1.243114	0.157820	12570.468750
5916.943891	1.207764	0.157820	13862.775391
5916.944800	1.178423	0.157820	14933.961914
5916.945663	1.150609	0.157820	15926.937500
5916.946759	1.122418	0.157820	17157.107422
5916.947737	1.096300	0.157820	18229.289062
5916.948660	0.803328	0.157820	18970.759766
5916.949542	0.108585	0.157820	19066.531250
5916.950544	0.089993	0.157820	19156.703125
5916.951453	0.089985	0.157820	19238.500000
5916.952364	0.089993	0.157820	19320.482422
5916.953223	0.089960	0.157820	19397.757812
5916.954245	0.089956	0.157820	19489.693359
5916.955137	0.089949	0.157820	19569.927734
5916.956015	0.090015	0.157820	19648.960937
5916.956995	0.090059	0.157820	19737.218750
5916.957946	0.090000	0.157820	19822.808594
5917.862976	1.166975	0.214611	630.166504
5917.864016	1.527312	0.214611	2218.571045
5917.864907	1.499637	0.214611	3554.748047
5917.865848	1.459094	0.214611	4927.755859
5917.866902	1.415032	0.214611	6419.199219
5917.867842	1.377338	0.214611	7713.896484
5917.868708	1.343972	0.214611	8877.776367
5917.869774	1.305494	0.214611	10269.433594
5917.870786	1.270250	0.214611	11554.926758
5917.871684	1.240250	0.214611	12668.671875
5917.872654	1.208049	0.214611	13840.479492
5917.873709	1.174314	0.214611	15079.380859
5917.874622	1.146211	0.214611	16125.871094
5917.875483	1.122920	0.214611	17092.705078
5917.876572	1.095432	0.214611	18285.630859
5917.877568	0.672037	0.214611	18954.980469
5917.878444	0.096888	0.214611	19039.855469
5917.879437	0.090007	0.214611	19129.232422
5917.880482	0.089996	0.214611	19223.279297
5917.881366	0.089982	0.214611	19302.822266
5917.882231	0.090029	0.214611	19380.697266
5917.883304	0.090125	0.214611	19477.400391
5917.884289	0.090015	0.214611	19566.064453
5917.885181	0.090059	0.214611	19646.396484
5917.886183	0.090026	0.214611	19736.601562
5917.887250	0.089938	0.214611	19832.564453
5918.971844	1.059782	0.159045	455.706055
5918.972741	1.520680	0.159045	1819.755981
5918.973820	1.504032	0.159045	3442.606445
5918.974706	1.464532	0.159045	4740.182129
5918.975595	1.425447	0.159045	6007.404297
5918.976675	1.382794	0.159045	7500.822266
5918.977645	1.345931	0.159045	8806.375977
5918.978518	1.313925	0.159045	9953.431641
5918.979550	1.277732	0.159045	11272.050781
5918.980585	1.243092	0.159045	12558.651367
5918.981479	1.212872	0.159045	13642.958984
5918.982434	1.182524	0.159045	14772.269531
5918.983500	1.149005	0.159045	15997.109375
5918.984439	1.124059	0.159045	17052.601562
5918.985309	1.102079	0.159045	18011.410156
5918.986374	0.819862	0.159045	18884.562500
5918.987379	0.101144	0.159045	18986.212891
5918.988269	0.089952	0.159045	19066.271484
5918.989233	0.090125	0.159045	19153.152344
5918.990282	0.090081	0.159045	19247.646484
5918.991202	0.089974	0.159045	19330.423828
5918.992063	0.090081	0.159045	19407.982422
5918.993130	0.090070	0.159045	19504.085937
5918.994123	0.090007	0.159045	19593.462891
5918.994999	0.090022	0.159045	19672.322266
5918.995984	0.090051	0.159045	19761.023437
5919.896589	1.123835	0.221451	564.165405
5919.897546	1.527034	0.221451	2025.536621
5919.898462	1.503966	0.221451	3403.169434
5919.899343	1.465356	0.221451	4694.148437
5919.900375	1.423224	0.221451	6162.915527
5919.901276	1.386138	0.221451	7411.825684
5919.902152	1.351886	0.221451	8596.078125
5919.903026	1.318392	0.221451	9748.353516
5919.904080	1.282606	0.221451	11100.220703
5919.904970	1.252306	0.221451	12214.773437
5919.905845	1.223097	0.221451	13284.983398
5919.906851	1.190830	0.221451	14482.958008
5919.907758	1.161588	0.221451	15536.518555
5919.908641	1.134884	0.221451	16538.621094
5919.909627	1.112164	0.221451	17635.214844
5919.910635	1.083699	0.221451	18727.583984
5919.911532	0.330582	0.221451	19024.117187
5919.912392	0.090267	0.221451	19101.748047
5919.913470	0.090040	0.221451	19198.810547
5919.914386	0.089945	0.221451	19281.201172
5919.915261	0.089956	0.221451	19359.912109
5919.916228	0.090026	0.221451	19446.966797
5919.917231	0.089963	0.221451	19537.199219
5919.918112	0.089974	0.221451	19616.466797
5919.918973	0.090081	0.221451	19694.025391
5919.920016	0.090033	0.221451	19787.929687
5921.011645	1.053604	0.159137	446.727905
5921.012675	1.524639	0.159137	2017.105713
5921.013713	1.499513	0.159137	3573.600098
5921.014600	1.460665	0.159137	4869.209961
5921.015547	1.421462	0.159137	6215.334961
5921.016605	1.378737	0.159137	7674.038086
5921.017541	1.342643	0.159137	8930.751953
5921.018405	1.310841	0.159137	10063.318359
5921.019476	1.274011	0.159137	11427.784180
5921.020494	1.239752	0.159137	12689.851562
5921.021374	1.210302	0.159137	13754.916992
5921.022349	1.179412	0.159137	14904.843750
5921.023409	1.146595	0.159137	16120.235352
5921.024309	1.122686	0.159137	17130.652344
5921.025219	1.099186	0.159137	18130.912109
5921.026101	0.889138	0.159137	18915.132812
5921.027140	0.106740	0.159137	19026.035156
5921.028024	0.089861	0.159137	19105.472656
5921.028902	0.089923	0.159137	19184.425781
5921.029859	0.090004	0.159137	19270.558594
5921.030832	0.089905	0.159137	19358.035156
5921.031753	0.090022	0.159137	19440.945312
5921.032618	0.089923	0.159137	19518.728516
5921.033656	0.089952	0.159137	19612.099609
5921.034536	0.089952	0.159137	19691.257812
5921.035402	0.089912	0.159137	19769.121094
5921.929288	1.178346	0.214764	651.625305
5921.930327	1.527220	0.214764	2238.407471
5921.931205	1.499418	0.214764	3554.895996
5921.932155	1.458505	0.214764	4940.475586
5921.933216	1.413871	0.214764	6440.592773
5921.934154	1.376528	0.214764	7731.776367
5921.935022	1.342815	0.214764	8897.339844
5921.936101	1.304238	0.214764	10304.613281
5921.937108	1.269100	0.214764	11582.597656
5921.937999	1.239456	0.214764	12686.953125
5921.938981	1.207251	0.214764	13872.473633
5921.940038	1.173325	0.214764	15112.678711
5921.940957	1.144636	0.214764	16164.599609
5921.941826	1.121704	0.214764	17139.361328
5921.942925	1.093528	0.214764	18341.148437
5921.943914	0.619384	0.214764	18953.718750
5921.944794	0.094427	0.214764	19036.814453
5921.945821	0.090000	0.214764	19129.244141
5921.946855	0.089971	0.214764	19222.273437
5921.947739	0.090040	0.214764	19301.869141
5921.948625	0.090132	0.214764	19381.726562
5921.949717	0.090040	0.214764	19480.050781
5921.950660	0.089945	0.214764	19564.869141
5921.951521	0.089905	0.214764	19642.277344
5921.952559	0.090004	0.214764	19735.701172
5921.953585	0.090044	0.214764	19828.085937
5923.049481	1.122627	0.149534	563.558716
5923.050450	1.527664	0.149534	2043.864746
5923.051332	1.505178	0.149534	3371.431885
5923.052342	1.461603	0.149534	4847.650879
5923.053403	1.417738	0.149534	6351.871094
5923.054297	1.381066	0.149534	7586.543945
5923.055184	1.345994	0.149534	8780.440430
5923.056273	1.307428	0.149534	10204.229492
5923.057226	1.274154	0.149534	11418.498047
5923.058090	1.245029	0.149534	12494.203125
5923.059126	1.210642	0.149534	13748.428711
5923.060166	1.177566	0.149534	14973.097656
5923.061058	1.149251	0.149534	15998.229492
5923.062003	1.124465	0.149534	17060.849609
5923.063072	1.096981	0.149534	18233.523437
5923.064019	0.782728	0.149534	18974.767578
5923.064877	0.106395	0.149534	19066.054687
5923.065919	0.089989	0.149534	19159.824219
5923.066938	0.089949	0.149534	19251.482422
5923.067829	0.089960	0.149534	19331.636719
5923.068790	0.090084	0.149534	19418.207031
5923.069850	0.089996	0.149534	19513.603516
5923.070764	0.090029	0.149534	19595.890625
5923.071630	0.090004	0.149534	19673.833984
5923.072697	0.090022	0.149534	19769.886719
5923.073693	0.089971	0.149534	19859.498047
5923.963863	1.071566	0.222346	481.133179
5923.964730	1.522134	0.222346	1800.823242
5923.965771	1.504039	0.222346	3366.528320
5923.966804	1.459424	0.222346	4874.113281
5923.967701	1.422067	0.222346	6149.707031
5923.968652	1.383860	0.222346	7465.757812
5923.969703	1.343181	0.222346	8877.441406
5923.970637	1.309427	0.222346	10100.446289
5923.971506	1.278376	0.222346	11211.355469
5923.972572	1.242788	0.222346	12536.167969
5923.973583	1.209210	0.222346	13758.679687
5923.974479	1.180433	0.222346	14816.347656
5923.975467	1.150228	0.222346	15952.773437
5923.976531	1.122294	0.222346	17146.894531
5923.977449	1.097915	0.222346	18154.781250
5923.978315	0.838986	0.222346	18881.343750
5923.979435	0.100400	0.222346	18993.792969
5923.980406	0.089945	0.222346	19081.128906
5923.981313	0.089890	0.222346	19162.660156
5923.982184	0.089930	0.222346	19240.990234
5923.983199	0.090000	0.222346	19332.339844
5923.984093	0.089982	0.222346	19412.783203
5923.985016	0.089930	0.222346	19495.789062
5923.985875	0.089985	0.222346	19573.085937
5923.986897	0.090015	0.222346	19665.080078
5923.987789	0.089993	0.222346	19745.353516
5925.086219	1.126047	0.157308	558.519470
5925.087151	1.526671	0.157308	1981.376953
5925.088021	1.506262	0.157308	3291.825195
5925.089099	1.460120	0.157308	4865.833984
5925.090112	1.417654	0.157308	6301.916992
5925.091013	1.381575	0.157308	7546.715820
5925.091993	1.344456	0.157308	8864.282227
5925.093059	1.305615	0.157308	10256.068359
5925.093975	1.273367	0.157308	11422.472656
5925.094845	1.243158	0.157308	12504.020508
5925.095932	1.208024	0.157308	13817.142578
5925.096918	1.176266	0.157308	14976.940430
5925.097815	1.148939	0.157308	16007.539062
5925.098819	1.122905	0.157308	17134.935547
5925.099864	1.095795	0.157308	18280.041016
5925.100755	0.783259	0.157308	18977.925781
5925.101630	0.106641	0.157308	19071.236328
5925.102715	0.090011	0.157308	19168.898437
5925.103672	0.089982	0.157308	19255.011719
5925.104529	0.089989	0.157308	19332.132812
5925.105542	0.090092	0.157308	19423.396484
5925.106590	0.089963	0.157308	19517.677734
5925.107467	0.090007	0.157308	19596.613281
5925.108382	0.090077	0.157308	19679.033203
5925.109447	0.090048	0.157308	19774.933594
5925.110398	0.089919	0.157308	19860.447266
5926.000082	1.085988	0.217173	484.350464
5926.000972	1.523101	0.217173	1839.910034
5926.001849	1.510532	0.217173	3164.646973
5926.002851	1.468165	0.217173	4635.748535
5926.003787	1.427893	0.217173	5972.256348
5926.004668	1.391968	0.217173	7198.580078
5926.005662	1.354131	0.217173	8544.585937
5926.006673	1.316305	0.217173	9875.370117
5926.007564	1.284957	0.217173	11020.267578
5926.008427	1.254657	0.217173	12103.036133
5926.009499	1.219871	0.217173	13410.737305
5926.010418	1.189072	0.217173	14503.495117
5926.011301	1.161771	0.217173	15529.338867
5926.012266	1.133588	0.217173	16623.250000
5926.013299	1.108564	0.217173	17768.396484
5926.014196	1.083270	0.217173	18740.089844
5926.015165	0.316417	0.217173	19046.697266
5926.016216	0.089956	0.217173	19141.240234
5926.017139	0.089996	0.217173	19224.306641
5926.018003	0.090018	0.217173	19302.082031
5926.019089	0.090088	0.217173	19399.917969
5926.020071	0.089905	0.217173	19488.205078
5926.020957	0.090007	0.217173	19567.951172
5926.021932	0.090066	0.217173	19655.765625
5926.022975	0.090022	0.217173	19749.658203
5926.023875	0.089945	0.217173	19830.609375
5926.024732	0.090007	0.217173	19907.746094
5927.119395	1.141333	0.152559	586.645142
5927.120320	1.526825	0.152559	1998.958252
5927.121185	1.505812	0.152559	3301.485352
5927.122252	1.460662	0.152559	4860.011230
5927.123246	1.418807	0.152559	6270.305664
5927.124142	1.383010	0.152559	7509.482910
5927.125135	1.345488	0.152559	8845.552734
5927.126179	1.307362	0.152559	10210.438477
5927.127084	1.275055	0.152559	11364.363281
5927.127948	1.244960	0.152559	12440.008789
5927.129039	1.209987	0.152559	13760.104492
5927.130028	1.177888	0.152559	14925.036133
5927.130914	1.150470	0.152559	15944.352539
5927.131792	1.126615	0.152559	16933.521484
5927.132786	1.101925	0.152559	18028.835937
5927.133727	0.921163	0.152559	18895.650391
5927.134653	0.130298	0.152559	19016.306641
5927.135516	0.089890	0.152559	19093.880859
5927.136551	0.089993	0.152559	19187.023437
5927.137441	0.090007	0.152559	19267.130859
5927.138320	0.090007	0.152559	19346.248047
5927.139302	0.090095	0.152559	19434.720703
5927.140249	0.089989	0.152559	19519.939453
5927.141125	0.089993	0.152559	19598.773437
5927.142045	0.090004	0.152559	19681.576172
5927.143089	0.090007	0.152559	19775.542969
5928.042505	1.121627	0.214277	564.178467
5928.043443	1.526539	0.214277	1996.072388
5928.044307	1.506379	0.214277	3297.583984
5928.045368	1.460757	0.214277	4847.446777
5928.046390	1.418119	0.214277	6296.764648
5928.047275	1.382457	0.214277	7520.239258
5928.048230	1.346316	0.214277	8805.970703
5928.049277	1.307831	0.214277	10175.269531
5928.050207	1.275278	0.214277	11361.278320
5928.051069	1.245597	0.214277	12434.982422
5928.052139	1.210752	0.214277	13730.487305
5928.053151	1.178079	0.214277	14922.703125
5928.054033	1.150455	0.214277	15937.404297
5928.055012	1.124564	0.214277	17038.353516
5928.056089	1.096948	0.214277	18219.767578
5928.056986	0.823729	0.214277	18958.652344
5928.057857	0.112335	0.214277	19056.496094
5928.058936	0.090095	0.214277	19153.708984
5928.059918	0.089941	0.214277	19242.031250
5928.060814	0.089949	0.214277	19322.625000
5928.061800	0.090018	0.214277	19411.382812
5928.062860	0.089971	0.214277	19506.751953
5928.063754	0.089985	0.214277	19587.199219
5928.064618	0.090015	0.214277	19664.972656
5928.065730	0.090040	0.214277	19765.097656
5928.066691	0.090015	0.214277	19851.601562
5929.150404	1.061338	0.157030	455.313934
5929.151271	1.521365	0.157030	1774.337280
5929.152286	1.506010	0.157030	3302.937012
5929.153252	1.464521	0.157030	4717.664551
5929.154133	1.427395	0.157030	5975.199707
5929.155027	1.390118	0.157030	7217.965820
5929.156121	1.349440	0.157030	8694.252930
5929.157009	1.316331	0.157030	9863.154297
5929.157881	1.285558	0.157030	10984.161133
5929.158933	1.250017	0.157030	12299.179687
5929.159916	1.217018	0.157030	13495.507812
5929.160780	1.188871	0.157030	14522.692383
5929.161818	1.156498	0.157030	15723.136719
5929.162860	1.127662	0.157030	16898.160156
5929.163740	1.105807	0.157030	17871.269531
5929.164652	1.019268	0.157030	18800.841797
5929.165730	0.158507	0.157030	18971.712891
5929.166671	0.089908	0.157030	19056.316406
5929.167528	0.090007	0.157030	19133.453125
5929.168557	0.090092	0.157030	19226.158203
5929.169597	0.089956	0.157030	19319.712891
5929.170470	0.089993	0.157030	19398.277344
5929.171416	0.090070	0.157030	19483.482422
5929.172470	0.090000	0.157030	19578.341797
5929.173410	0.089978	0.157030	19662.921875
5929.174277	0.089949	0.157030	19740.908203
5930.083778	1.057350	0.202297	454.660461
5930.084746	1.520563	0.202297	1926.565186
5930.085802	1.500707	0.202297	3511.311523
5930.086726	1.460438	0.202297	4860.756348
5930.087588	1.423154	0.202297	6087.515625
5930.088665	1.380747	0.202297	7574.580078
5930.089669	1.342621	0.202297	8922.571289
5930.090541	1.310270	0.202297	10065.126953
5930.091529	1.276011	0.202297	11325.825195
5930.092583	1.240682	0.202297	12633.503906
5930.093492	1.210250	0.202297	13733.621094
5930.094362	1.180862	0.202297	14760.970703
5930.095457	1.148214	0.202297	16018.265625
5930.096428	1.122861	0.202297	17108.564453
5930.097307	1.100277	0.202297	18075.708984
5930.098298	0.829032	0.202297	18897.279297
5930.099364	0.100206	0.202297	19004.099609
5930.100258	0.089905	0.202297	19084.474609
5930.101130	0.089883	0.202297	19162.851562
5930.102018	0.089967	0.202297	19242.742187
5930.103047	0.089963	0.202297	19335.314453
5930.103932	0.089934	0.202297	19414.906250
5930.104798	0.090066	0.202297	19492.904297
5930.105802	0.089996	0.202297	19583.259766
5930.106700	0.089905	0.202297	19663.994141
5930.107612	0.089967	0.202297	19746.044922
5931.182111	1.136100	0.151846	581.683105
5931.183067	1.527184	0.151846	2041.670776
5931.183933	1.505350	0.151846	3345.304199
5931.184977	1.460460	0.151846	4870.024414
5931.186012	1.417441	0.151846	6337.076172
5931.186894	1.381549	0.151846	7555.602539
5931.187819	1.345734	0.151846	8800.406250
5931.188885	1.306758	0.151846	10193.410156
5931.189841	1.273693	0.151846	11411.060547
5931.190709	1.244136	0.151846	12490.970703
5931.191737	1.210195	0.151846	13735.051758
5931.192764	1.177083	0.151846	14943.916016
5931.193657	1.149708	0.151846	15970.605469
5931.194626	1.124414	0.151846	17060.162109
5931.195690	1.096487	0.151846	18226.824219
5931.196623	0.789463	0.151846	18963.392578
5931.197484	0.106750	0.151846	19055.304687
5931.198579	0.090015	0.151846	19153.871094
5931.199575	0.089996	0.151846	19243.507812
5931.200466	0.090062	0.151846	19323.753906
5931.201442	0.090044	0.151846	19411.636719
5931.202483	0.089923	0.151846	19505.246094
5931.203383	0.089927	0.151846	19586.179687
5931.204242	0.090011	0.151846	19663.500000
5931.205318	0.090088	0.151846	19760.433594
5931.206306	0.089967	0.151846	19849.320312
5932.120512	1.052801	0.207582	447.440643
5932.121401	1.519757	0.207582	1798.504639
5932.122501	1.502754	0.207582	3451.534180
5932.123390	1.463661	0.207582	4752.728516
5932.124255	1.426791	0.207582	5986.902344
5932.125303	1.384882	0.207582	7438.258301
5932.126270	1.347689	0.207582	8741.473633
5932.127146	1.315118	0.207582	9893.517578
5932.128019	1.283071	0.207582	11013.638672
5932.129121	1.247992	0.207582	12388.925781
5932.130004	1.217651	0.207582	13464.112305
5932.130879	1.187487	0.207582	14503.163086
5932.131997	1.154099	0.207582	15793.446289
5932.132964	1.127498	0.207582	16883.736328
5932.133837	1.106162	0.207582	17849.416016
5932.134856	0.970071	0.207582	18837.917969
5932.135898	0.135084	0.207582	18978.675781
5932.136787	0.089923	0.207582	19058.617187
5932.137709	0.090048	0.207582	19141.640625
5932.138775	0.090018	0.207582	19237.599609
5932.139726	0.089982	0.207582	19323.171875
5932.140593	0.089960	0.207582	19401.166016
5932.141639	0.090084	0.207582	19495.394531
5932.142650	0.089960	0.207582	19586.343750
5932.143545	0.089945	0.207582	19666.843750
5932.144484	0.090092	0.207582	19751.439453
5933.216716	1.056365	0.156805	448.955017
5933.217657	1.520372	0.156805	1879.625244
5933.218713	1.501750	0.156805	3465.473633
5933.219655	1.460889	0.156805	4841.630859
5933.220526	1.423824	0.156805	6081.782227
5933.221588	1.381641	0.156805	7549.084473
5933.222608	1.342504	0.156805	8918.438477
5933.223493	1.310427	0.156805	10078.166016
5933.224478	1.276626	0.156805	11335.642578
5933.225538	1.240638	0.156805	12650.718750
5933.226452	1.209800	0.156805	13756.475586
5933.227315	1.181279	0.156805	14775.919922
5933.228403	1.148529	0.156805	16025.519531
5933.229399	1.122184	0.156805	17143.214844
5933.230269	1.099607	0.156805	18099.873047
5933.231255	0.807363	0.156805	18895.933594
5933.232303	0.100206	0.156805	19000.949219
5933.233206	0.089780	0.156805	19082.021484
5933.234067	0.089971	0.156805	19159.486328
5933.235160	0.090055	0.156805	19257.916016
5933.236123	0.089934	0.156805	19344.523437
5933.237005	0.089963	0.156805	19423.871094
5933.237986	0.090015	0.156805	19512.175781
5933.239053	0.089923	0.156805	19608.123047
5933.239943	0.090022	0.156805	19688.242187
5933.240815	0.089982	0.156805	19766.707031
5934.157236	1.056866	0.200979	442.827026
5934.158306	1.525126	0.200979	2074.711426
5934.159302	1.498447	0.200979	3567.164795
5934.160198	1.459900	0.200979	4875.235352
5934.161189	1.418752	0.200979	6281.218750
5934.162246	1.376697	0.200979	7736.387207
5934.163149	1.341702	0.200979	8947.943359
5934.164030	1.308428	0.200979	10100.667969
5934.165139	1.270814	0.200979	11510.000977
5934.166116	1.238654	0.200979	12720.166016
5934.166994	1.209071	0.200979	13781.730469
5934.168046	1.175735	0.200979	15018.603516
5934.169077	1.143926	0.200979	16197.991211
5934.169973	1.121122	0.200979	17202.515625
5934.170925	1.096403	0.200979	18246.291016
5934.171985	0.636438	0.200979	18920.916016
5934.172913	0.093827	0.200979	19007.988281
5934.173772	0.089996	0.200979	19085.294922
5934.174841	0.090179	0.200979	19181.697266
5934.175844	0.090004	0.200979	19271.970703
5934.176716	0.090037	0.200979	19350.482422
5934.177673	0.090077	0.200979	19436.685547
5934.178720	0.089978	0.200979	19530.892578
5934.179626	0.090095	0.200979	19612.519531
5934.180491	0.090044	0.200979	19690.408203
5934.181538	0.090103	0.200979	19784.746094
5935.253447	1.072540	0.148938	466.555023
5935.254322	1.522028	0.148938	1798.329224
5935.255316	1.507028	0.148938	3296.314697
5935.256245	1.466115	0.148938	4658.334961
5935.257165	1.427882	0.148938	5971.986328
5935.258038	1.391320	0.148938	7186.608398
5935.259083	1.351956	0.148938	8599.402344
5935.259971	1.318825	0.148938	9770.518555
5935.260840	1.287986	0.148938	10889.778320
5935.261796	1.255620	0.148938	12090.151367
5935.262743	1.223606	0.148938	13248.906250
5935.263655	1.193859	0.148938	14337.705078
5935.264537	1.165953	0.148938	15366.076172
5935.265570	1.135181	0.148938	16538.718750
5935.266479	1.114336	0.148938	17551.650391
5935.267350	1.089283	0.148938	18500.416016
5935.268413	0.416832	0.148938	18943.507812
5935.269373	0.089989	0.148938	19029.896484
5935.270250	0.089967	0.148938	19108.796875
5935.271172	0.090015	0.148938	19191.791016
5935.272218	0.089982	0.148938	19285.912109
5935.273096	0.089945	0.148938	19364.884766
5935.273956	0.090011	0.148938	19442.294922
5935.274980	0.090077	0.148938	19534.533203
5935.275943	0.089923	0.148938	19621.128906
5935.276813	0.089963	0.148938	19699.396484
5935.277672	0.089974	0.148938	19776.683594
5936.191050	1.172725	0.196641	666.107605
5936.192101	1.526495	0.196641	2270.454102
5936.192980	1.498070	0.196641	3587.257812
5936.193870	1.458025	0.196641	4884.899902
5936.194963	1.413545	0.196641	6429.904297
5936.195928	1.375485	0.196641	7757.247070
5936.196797	1.342229	0.196641	8923.644531
5936.197821	1.304960	0.196641	10259.922852
5936.198862	1.268848	0.196641	11580.792969
5936.199754	1.239093	0.196641	12686.063477
5936.200700	1.207899	0.196641	13828.736328
5936.201764	1.173626	0.196641	15077.473633
5936.202703	1.144611	0.196641	16152.262695
5936.203575	1.122191	0.196641	17130.812500
5936.204634	1.094692	0.196641	18290.091797
5936.205656	0.633746	0.196641	18937.781250
5936.206545	0.094343	0.196641	19021.652344
5936.207518	0.089952	0.196641	19109.175781
5936.208550	0.089949	0.196641	19202.001953
5936.209459	0.089941	0.196641	19283.757812
5936.210321	0.090044	0.196641	19361.375000
5936.211380	0.090070	0.196641	19456.757812
5936.212380	0.089960	0.196641	19546.716797
5936.213256	0.089945	0.196641	19625.507812
5936.214245	0.089971	0.196641	19714.488281
5936.215282	0.089846	0.196641	19807.658203
5937.293247	1.055002	0.144748	448.376038
5937.294232	1.521863	0.144748	1947.410889
5937.295281	1.500392	0.144748	3521.321777
5937.296179	1.460812	0.144748	4833.130859
5937.297054	1.422678	0.144748	6077.974609
5937.298156	1.379853	0.144748	7598.573242
5937.299125	1.342903	0.144748	8899.845703
5937.299998	1.310980	0.144748	10044.331055
5937.301039	1.274868	0.144748	11371.468750
5937.302081	1.240008	0.144748	12663.557617
5937.302978	1.209807	0.144748	13748.754883
5937.303923	1.179727	0.144748	14863.596680
5937.304998	1.146266	0.144748	16095.832031
5937.305943	1.121818	0.144748	17155.949219
5937.306812	1.099171	0.144748	18111.128906
5937.307871	0.748257	0.144748	18903.533203
5937.308879	0.096006	0.144748	19000.306641
5937.309757	0.089923	0.144748	19079.259766
5937.310738	0.089952	0.144748	19167.503906
5937.311779	0.090022	0.144748	19261.216797
5937.312691	0.089912	0.144748	19343.216797
5937.313550	0.089996	0.144748	19420.523437
5937.314621	0.090040	0.144748	19516.957031
5937.315622	0.089938	0.144748	19606.984375
5937.316492	0.089996	0.144748	19685.281250
5937.317471	0.090110	0.144748	19773.498047
5938.222550	1.074650	0.200979	478.219116
5938.223412	1.521149	0.200979	1789.449341
5938.224464	1.503457	0.200979	3371.086182
5938.225478	1.459296	0.200979	4850.812012
5938.226377	1.422250	0.200979	6129.414551
5938.227349	1.383208	0.200979	7473.892578
5938.228422	1.342079	0.200979	8913.943359
5938.229333	1.308362	0.200979	10105.861328
5938.230258	1.276388	0.200979	11286.520508
5938.231127	1.246014	0.200979	12369.306641
5938.232176	1.212308	0.200979	13641.017578
5938.233071	1.183312	0.200979	14700.082031
5938.233946	1.156238	0.200979	15711.790039
5938.234951	1.128644	0.200979	16846.076172
5938.235887	1.104727	0.200979	17880.099609
5938.236802	1.048975	0.200979	18839.912109
5938.237671	0.221993	0.200979	19032.824219
5938.238712	0.089835	0.200979	19126.341797
5938.239585	0.089916	0.200979	19204.837891
5938.240458	0.089916	0.200979	19283.333984
5938.241404	0.089978	0.200979	19368.453125
5938.242371	0.089927	0.200979	19455.412109
5938.243249	0.090000	0.200979	19534.431641
5938.244143	0.090000	0.200979	19614.892578
5938.245223	0.090015	0.200979	19712.109375
5938.246116	0.089963	0.200979	19792.447266
5939.331088	1.121235	0.144808	558.375244
5939.332111	1.526796	0.144808	2120.287109
5939.332989	1.501897	0.144808	3438.952637
5939.333978	1.459402	0.144808	4882.300781
5939.335030	1.416035	0.144808	6371.969727
5939.335924	1.379348	0.144808	7605.106934
5939.336797	1.344653	0.144808	8778.989258
5939.337905	1.305879	0.144808	10225.903320
5939.338874	1.272187	0.144808	11458.653320
5939.339747	1.242854	0.144808	12543.665039
5939.340810	1.207376	0.144808	13827.105469
5939.341855	1.174325	0.144808	15054.275391
5939.342746	1.146376	0.144808	16075.696289
5939.343676	1.122473	0.144808	17119.595703
5939.344755	1.094202	0.144808	18300.240234
5939.345705	0.693142	0.144808	18958.724609
5939.346568	0.098214	0.144808	19043.482422
5939.347606	0.090037	0.144808	19136.941406
5939.348610	0.089945	0.144808	19227.246094
5939.349494	0.089905	0.144808	19306.722656
5939.350445	0.090110	0.144808	19392.417969
5939.351487	0.090004	0.144808	19486.201172
5939.352411	0.090037	0.144808	19569.394531
5939.353271	0.089941	0.144808	19646.744141
5939.354319	0.089960	0.144808	19741.021484
5939.355326	0.089934	0.144808	19831.585937
5940.256199	1.065190	0.204637	462.292664
5940.257066	1.521028	0.204637	1781.023682
5940.258042	1.507126	0.204637	3251.979004
5940.258986	1.466279	0.204637	4636.146484
5940.259860	1.429658	0.204637	5885.667969
5940.260830	1.390576	0.204637	7234.526855
5940.261862	1.350256	0.204637	8627.991211
5940.262756	1.317345	0.204637	9805.697266
5940.263621	1.286393	0.204637	10918.426758
5940.264691	1.250530	0.204637	12256.494141
5940.265640	1.218582	0.204637	13412.927734
5940.266523	1.189962	0.204637	14463.664062
5940.267488	1.160090	0.204637	15583.151367
5940.268505	1.130519	0.204637	16732.888672
5940.269390	1.109546	0.204637	17714.835937
5940.270256	1.084816	0.204637	18654.287109
5940.271319	0.281393	0.204637	18953.408203
5940.272253	0.089846	0.204637	19037.324219
5940.273110	0.089927	0.204637	19114.390625
5940.274140	0.090037	0.204637	19207.128906
5940.275170	0.089934	0.204637	19299.761719
5940.276058	0.089963	0.204637	19379.648437
5940.276994	0.089941	0.204637	19463.833984
5940.278049	0.089916	0.204637	19558.695312
5940.278975	0.090022	0.204637	19642.054687
5940.279842	0.089919	0.204637	19720.015625
5941.368318	1.115772	0.147036	547.843811
5941.369195	1.524639	0.147036	1884.951904
5941.370121	1.506676	0.147036	3280.133789
5941.371203	1.460017	0.147036	4859.872070
5941.372150	1.420572	0.147036	6205.154297
5941.373021	1.385182	0.147036	7411.647461
5941.374072	1.345060	0.147036	8825.305664
5941.375092	1.308051	0.147036	10159.517578
5941.375988	1.276304	0.147036	11303.085937
5941.376905	1.245608	0.147036	12445.308594
5941.377776	1.215670	0.147036	13504.157227
5941.378784	1.184337	0.147036	14697.968750
5941.379708	1.155410	0.147036	15765.567383
5941.380574	1.130072	0.147036	16744.208984
5941.381590	1.105792	0.147036	17867.693359
5941.382496	1.057042	0.147036	18825.373047
5941.383374	0.235635	0.147036	19032.259766
5941.384276	0.090007	0.147036	19113.447266
5941.385288	0.090033	0.147036	19204.560547
5941.386212	0.089890	0.147036	19287.619141
5941.387087	0.089923	0.147036	19366.302734
5941.388089	0.089982	0.147036	19456.464844
5941.389010	0.089952	0.147036	19539.310547
5941.389892	0.090011	0.147036	19618.701172
5941.390893	0.090103	0.147036	19708.894531
5941.391897	0.089945	0.147036	19799.199219
5942.291008	1.172703	0.195690	634.432129
5942.291964	1.527026	0.195690	2094.269287
5942.292826	1.503765	0.195690	3390.514404
5942.293850	1.459651	0.195690	4885.196777
5942.294883	1.416914	0.195690	6348.869141
5942.295769	1.380626	0.195690	7572.104004
5942.296697	1.345144	0.195690	8820.397461
5942.297769	1.306458	0.195690	10220.919922
5942.298710	1.273564	0.195690	11419.343750
5942.299577	1.244037	0.195690	12497.923828
5942.300613	1.209386	0.195690	13750.847656
5942.301642	1.176302	0.195690	14961.262695
5942.302540	1.148573	0.195690	15992.681641
5942.303502	1.123667	0.195690	17073.648437
5942.304558	1.096011	0.195690	18231.035156
5942.305486	0.791385	0.195690	18965.441406
5942.306355	0.106238	0.195690	19057.761719
5942.307423	0.089996	0.195690	19153.876953
5942.308419	0.089912	0.195690	19243.429687
5942.309310	0.089985	0.195690	19323.607422
5942.310271	0.090048	0.195690	19410.142578
5942.311328	0.089982	0.195690	19505.253906
5942.312239	0.090044	0.195690	19587.283203
5942.313105	0.090000	0.195690	19665.222656
5942.314166	0.090026	0.195690	19760.740234
5942.315146	0.089989	0.195690	19848.929687
5943.405519	1.079399	0.139165	471.697510
5943.406384	1.520801	0.139165	1787.190186
5943.407483	1.502033	0.139165	3437.923828
5943.408455	1.460288	0.139165	4857.324219
5943.409321	1.423725	0.139165	6090.270508
5943.410345	1.382992	0.139165	7506.454102
5943.411390	1.343053	0.139165	8909.944336
5943.412275	1.310303	0.139165	10069.562500
5943.413179	1.277688	0.139165	11224.592773
5943.414279	1.241645	0.139165	12590.402344
5943.415230	1.210155	0.139165	13741.259766
5943.416093	1.181843	0.139165	14761.190430
5943.417113	1.150111	0.139165	15934.303711
5943.418146	1.123158	0.139165	17094.525391
5943.419034	1.099973	0.139165	18071.300781
5943.419976	0.863408	0.139165	18884.630859
5943.421032	0.106560	0.139165	18997.158203
5943.421970	0.089850	0.139165	19081.437500
5943.422835	0.089989	0.139165	19159.277344
5943.423885	0.090015	0.139165	19253.792969
5943.424899	0.089930	0.139165	19344.982422
5943.425799	0.089960	0.139165	19425.945312
5943.426750	0.090004	0.139165	19511.539062
5943.427803	0.089945	0.139165	19606.251953
5943.428735	0.089934	0.139165	19690.070312
5943.429598	0.090015	0.139165	19767.753906
5944.325065	1.053388	0.204859	461.383728
5944.325929	1.520973	0.204859	1775.504150
5944.326939	1.505599	0.204859	3296.159668
5944.327986	1.460643	0.204859	4825.453125
5944.328888	1.422729	0.204859	6108.754883
5944.329807	1.385123	0.204859	7381.683105
5944.330896	1.343665	0.204859	8844.933594
5944.331835	1.309394	0.204859	10074.455078
5944.332746	1.277659	0.204859	11238.402344
5944.333631	1.247659	0.204859	12342.580078
5944.334690	1.212751	0.204859	13626.883789
5944.335590	1.183370	0.204859	14691.916992
5944.336469	1.156025	0.204859	15708.063477
5944.337397	1.129900	0.204859	16756.611328
5944.338400	1.105671	0.204859	17865.599609
5944.339332	1.047048	0.204859	18841.449219
5944.340208	0.218826	0.204859	19033.140625
5944.341275	0.089879	0.204859	19129.041016
5944.342147	0.089912	0.204859	19207.445312
5944.343012	0.089916	0.204859	19285.222656
5944.343877	0.090051	0.204859	19363.117187
5944.344916	0.089912	0.204859	19456.535156
5944.345800	0.089949	0.204859	19536.050781
5944.346661	0.089905	0.204859	19613.458984
5944.347742	0.090022	0.204859	19710.773437
5944.348653	0.089985	0.204859	19792.750000
5945.441272	1.107975	0.139362	534.043823
5945.442153	1.524218	0.139362	1876.879517
5945.443088	1.506427	0.139362	3285.388672
5945.444161	1.460006	0.139362	4851.975098
5945.445106	1.420635	0.139362	6194.475098
5945.445972	1.385116	0.139362	7393.985352
5945.447051	1.344324	0.139362	8844.510742
5945.448055	1.307703	0.139362	10157.444336
5945.448955	1.276146	0.139362	11305.975586
5945.449924	1.244092	0.139362	12511.500000
5945.450981	1.208591	0.139362	13788.981445
5945.451894	1.179023	0.139362	14865.429687
5945.452757	1.151722	0.139362	15859.366211
5945.453826	1.123751	0.139362	17060.656250
5945.454826	1.097618	0.139362	18158.275391
5945.455706	0.895056	0.139362	18945.925781
5945.456708	0.120308	0.139362	19066.474609
5945.457743	0.089864	0.139362	19159.484375
5945.458625	0.089934	0.139362	19238.806641
5945.459488	0.089989	0.139362	19316.466797
5945.460569	0.090110	0.139362	19413.875000
5945.461536	0.089963	0.139362	19500.869141
5945.462453	0.089971	0.139362	19583.373047
5945.463329	0.089993	0.139362	19662.207031
5945.464314	0.089908	0.139362	19750.767578
5945.465232	0.090000	0.139362	19833.386719
5946.360857	1.132280	0.200258	571.801514
5946.361773	1.525649	0.200258	1969.296387
5946.362636	1.505742	0.200258	3268.751953
5946.363715	1.460632	0.200258	4844.774414
5946.364717	1.418577	0.200258	6266.188477
5946.365599	1.382893	0.200258	7485.900391
5946.366567	1.345463	0.200258	8788.308594
5946.367640	1.307051	0.200258	10190.774414
5946.368529	1.275377	0.200258	11324.584961
5946.369402	1.244769	0.200258	12411.268555
5946.370499	1.209379	0.200258	13737.957031
5946.371468	1.178405	0.200258	14879.831055
5946.372356	1.150829	0.200258	15901.767578
5946.373361	1.124279	0.200258	17031.667969
5946.374411	1.097472	0.200258	18184.013672
5946.375307	0.851960	0.200258	18947.371094
5946.376205	0.115891	0.200258	19051.441406
5946.377305	0.090077	0.200258	19150.525391
5946.378257	0.090011	0.200258	19236.216797
5946.379118	0.090007	0.200258	19313.712891
5946.380153	0.090004	0.200258	19406.867187
5946.381176	0.089963	0.200258	19498.900391
5946.382063	0.089956	0.200258	19578.691406
5946.382988	0.089978	0.200258	19661.921875
5946.384035	0.089952	0.200258	19756.101562
5946.384970	0.089956	0.200258	19840.210937
5947.475907	1.061323	0.137678	456.369019
5947.476771	1.520123	0.137678	1769.755493
5947.477835	1.503896	0.137678	3369.901367
5947.478740	1.464807	0.137678	4695.551758
5947.479610	1.427563	0.137678	5937.532227
5947.480685	1.384768	0.137678	7426.157715
5947.481627	1.348506	0.137678	8696.450195
5947.482507	1.316243	0.137678	9854.744141
5947.483475	1.282614	0.137678	11096.314453
5947.484486	1.247952	0.137678	12357.993164
5947.485374	1.218171	0.137678	13439.729492
5947.486243	1.189607	0.137678	14473.498047
5947.487315	1.156725	0.137678	15713.506836
5947.488252	1.129892	0.137678	16772.216797
5947.489117	1.108759	0.137678	17731.292969
5947.490183	1.013782	0.137678	18811.984375
5947.491198	0.157317	0.137678	18971.660156
5947.492068	0.089784	0.137678	19049.771484
5947.493027	0.090044	0.137678	19136.123047
5947.494078	0.090040	0.137678	19230.755859
5947.495004	0.090004	0.137678	19314.099609
5947.495868	0.089974	0.137678	19391.837891
5947.496936	0.090026	0.137678	19487.984375
5947.497934	0.089974	0.137678	19577.779297
5947.498822	0.090081	0.137678	19657.771484
5947.499798	0.090004	0.137678	19745.615234
5948.397586	1.129823	0.195827	567.171143
5948.398471	1.524987	0.195827	1916.784302
5948.399386	1.505489	0.195827	3294.307129
5948.400445	1.460274	0.195827	4840.736816
5948.401396	1.420693	0.195827	6191.816406
5948.402265	1.385259	0.195827	7395.606445
5948.403310	1.345642	0.195827	8801.802734
5948.404338	1.307955	0.195827	10146.380859
5948.405222	1.276838	0.195827	11275.105469
5948.406179	1.245048	0.195827	12466.616211
5948.407252	1.209100	0.195827	13763.980469
5948.408178	1.179258	0.195827	14855.973633
5948.409041	1.152096	0.195827	15850.232422
5948.410085	1.124136	0.195827	17023.830078
5948.411103	1.097736	0.195827	18141.324219
5948.412001	0.885520	0.195827	18936.521484
5948.412975	0.120948	0.195827	19054.326172
5948.414014	0.089960	0.195827	19147.794922
5948.414933	0.089941	0.195827	19230.451172
5948.415795	0.089956	0.195827	19307.994141
5948.416880	0.089978	0.195827	19405.621094
5948.417866	0.090015	0.195827	19494.375000
5948.418765	0.089985	0.195827	19575.271484
5948.419748	0.090062	0.195827	19663.802734
5948.420796	0.089985	0.195827	19758.107422
5948.421694	0.089938	0.195827	19838.871094
5949.511117	1.078363	0.134415	473.401398
5949.511998	1.522145	0.134415	1814.410767
5949.513020	1.504980	0.134415	3352.500732
5949.514080	1.459537	0.134415	4899.610352
5949.514971	1.421404	0.134415	6166.081055
5949.515856	1.384735	0.134415	7391.571777
5949.516937	1.344181	0.134415	8844.630859
5949.517907	1.309105	0.134415	10114.462891
5949.518775	1.278399	0.134415	11224.113281
5949.519818	1.243619	0.134415	12521.208008
5949.520857	1.209042	0.134415	13777.402344
5949.521744	1.180016	0.134415	14824.076172
5949.522679	1.151268	0.134415	15900.511719
5949.523750	1.123184	0.134415	17103.441406
5949.524692	1.098351	0.134415	18138.087891
5949.525553	0.911671	0.134415	18923.037109
5949.526606	0.109904	0.134415	19038.765625
5949.527623	0.089963	0.134415	19130.257812
5949.528511	0.089963	0.134415	19210.144531
5949.529468	0.090048	0.134415	19296.320312
5949.530511	0.090066	0.134415	19390.259766
5949.531427	0.089952	0.134415	19472.656250
5949.532296	0.090026	0.134415	19550.888672
5949.533361	0.090070	0.134415	19646.812500
5949.534349	0.090011	0.134415	19735.744141
5949.535236	0.090081	0.134415	19815.646484
5950.432185	1.050326	0.195638	444.287903
5950.433161	1.520024	0.195638	1927.831787
5950.434191	1.500974	0.195638	3473.835205
5950.435087	1.461804	0.195638	4783.611816
5950.435952	1.425026	0.195638	6016.258789
5950.437018	1.382717	0.195638	7490.235352
5950.437959	1.346506	0.195638	8757.297852
5950.438834	1.314346	0.195638	9907.350586
5950.439812	1.280614	0.195638	11159.791016
5950.440830	1.245967	0.195638	12428.185547
5950.441722	1.216311	0.195638	13513.134766
5950.442581	1.187527	0.195638	14533.220703
5950.443625	1.155081	0.195638	15739.125000
5950.444579	1.128263	0.195638	16815.488281
5950.445451	1.107400	0.195638	17781.140625
5950.446499	0.975520	0.195638	18803.486328
5950.447530	0.137483	0.195638	18945.230469
5950.448417	0.089828	0.195638	19024.908203
5950.449370	0.089985	0.195638	19110.664062
5950.450421	0.089949	0.195638	19205.199219
5950.451351	0.089960	0.195638	19288.861328
5950.452214	0.089967	0.195638	19366.501953
5950.453290	0.089982	0.195638	19463.322266
5950.454266	0.089897	0.195638	19551.062500
5950.455154	0.089919	0.195638	19630.910156
5950.456124	0.089978	0.195638	19718.189453
5951.545275	1.051926	0.138540	446.016724
5951.546322	1.523910	0.138540	2041.550415
5951.547348	1.498220	0.138540	3578.724365
5951.548234	1.459618	0.138540	4871.945801
5951.549174	1.420459	0.138540	6207.177246
5951.550217	1.378462	0.138540	7644.913086
5951.551157	1.342434	0.138540	8906.800781
5951.552020	1.310504	0.138540	10037.765625
5951.553048	1.274586	0.138540	11348.040039
5951.554078	1.240660	0.138540	12625.919922
5951.554961	1.210756	0.138540	13695.017578
5951.555837	1.182938	0.138540	14731.271484
5951.556800	1.153509	0.138540	15842.101562
5951.557759	1.126527	0.138540	16922.441406
5951.558685	1.103694	0.138540	17944.460937
5951.559562	1.038164	0.138540	18854.931641
5951.560596	0.156563	0.138540	19016.816406
5951.561491	0.089722	0.138540	19097.117187
5951.562363	0.089886	0.138540	19175.498047
5951.563264	0.089901	0.138540	19256.498047
5951.564281	0.089923	0.138540	19347.949219
5951.565169	0.089897	0.138540	19427.777344
5951.566034	0.089927	0.138540	19505.564453
5951.567022	0.089982	0.138540	19594.466797
5951.567933	0.089850	0.138540	19676.320312
5951.568812	0.089886	0.138540	19755.330078
5952.468426	1.067234	0.191698	457.843292
5952.469422	1.521918	0.191698	1973.673340
5952.470477	1.499147	0.191698	3555.273193
5952.471358	1.459947	0.191698	4841.486816
5952.472246	1.421851	0.191698	6104.089844
5952.473340	1.379073	0.191698	7612.795898
5952.474289	1.342877	0.191698	8887.186523
5952.475153	1.311160	0.191698	10020.028320
5952.476193	1.275154	0.191698	11346.188477
5952.477234	1.240540	0.191698	12637.589844
5952.478112	1.210587	0.191698	13700.485352
5952.479028	1.180426	0.191698	14781.755859
5952.480103	1.147676	0.191698	16015.507812
5952.481042	1.123118	0.191698	17070.115234
5952.481915	1.100691	0.191698	18031.017578
5952.482952	0.814358	0.191698	18875.505859
5952.483978	0.100104	0.191698	18978.212891
5952.484870	0.089821	0.191698	19058.332031
5952.485835	0.089978	0.191698	19145.160156
5952.486889	0.089945	0.191698	19239.962891
5952.487816	0.089868	0.191698	19323.271484
5952.488680	0.089890	0.191698	19400.937500
5952.489771	0.089985	0.191698	19499.111328
5952.490771	0.089835	0.191698	19588.947266
5952.491658	0.089824	0.191698	19668.621094
5952.492634	0.089985	0.191698	19756.447266
5953.580038	1.121206	0.132699	557.239380
5953.580967	1.525778	0.132699	1974.686768
5953.581831	1.506292	0.132699	3276.122559
5953.582905	1.460460	0.132699	4844.656738
5953.583911	1.418243	0.132699	6271.409668
5953.584798	1.382607	0.132699	7497.782227
5953.585789	1.345063	0.132699	8830.740234
5953.586845	1.306714	0.132699	10210.629883
5953.587749	1.274572	0.132699	11362.842773
5953.588611	1.244652	0.132699	12435.732422
5953.589696	1.209595	0.132699	13748.142578
5953.590692	1.177383	0.132699	14920.816406
5953.591574	1.150023	0.132699	15935.136719
5953.592553	1.124037	0.132699	17035.568359
5953.593637	1.096956	0.132699	18224.667969
5953.594522	0.827249	0.132699	18956.783203
5953.595394	0.112372	0.132699	19054.771484
5953.596493	0.090051	0.132699	19153.738281
5953.597461	0.089905	0.132699	19240.765625
5953.598327	0.089960	0.132699	19318.669922
5953.599375	0.089960	0.132699	19412.947266
5953.600412	0.089960	0.132699	19506.236328
5953.601300	0.090015	0.132699	19586.169922
5953.602210	0.089938	0.132699	19668.013672
5953.603288	0.089963	0.132699	19764.994141
5953.604240	0.089938	0.132699	19850.615234
5954.505144	1.056951	0.195251	443.919281
5954.506222	1.524716	0.195251	2087.562500
5954.507216	1.497960	0.195251	3576.534912
5954.508111	1.459054	0.195251	4882.388184
5954.509098	1.418368	0.195251	6282.317383
5954.510142	1.376517	0.195251	7719.401367
5954.511055	1.340727	0.195251	8943.485352
5954.511987	1.307596	0.195251	10162.165039
5954.512854	1.276095	0.195251	11268.539062
5954.513896	1.242294	0.195251	12563.008789
5954.514782	1.212448	0.195251	13637.237305
5954.515654	1.184165	0.195251	14669.829102
5954.516634	1.154044	0.195251	15800.792969
5954.517572	1.127410	0.195251	16858.302734
5954.518492	1.105279	0.195251	17875.160156
5954.519372	1.035363	0.195251	18786.279297
5954.520408	0.170105	0.195251	18962.507812
5954.521306	0.089718	0.195251	19043.074219
5954.522186	0.089901	0.195251	19122.187500
5954.523136	0.090029	0.195251	19207.714844
5954.524102	0.089890	0.195251	19294.548828
5954.524976	0.089901	0.195251	19373.123047
5954.525851	0.090037	0.195251	19451.904297
5954.526936	0.089941	0.195251	19549.490234
5954.527814	0.089923	0.195251	19628.443359
5954.528674	0.089978	0.195251	19705.824219
5955.613675	1.102632	0.135241	519.339600
5955.614555	1.523602	0.135241	1860.109741
5955.615506	1.506416	0.135241	3292.711426
5955.616572	1.460175	0.135241	4849.257812
5955.617511	1.420825	0.135241	6183.412598
5955.618378	1.384849	0.135241	7384.076172
5955.619464	1.344023	0.135241	8843.685547
5955.620462	1.307761	0.135241	10148.831055
5955.621348	1.276838	0.135241	11280.109375
5955.622341	1.243744	0.135241	12515.147461
5955.623409	1.208533	0.135241	13805.860352
5955.624299	1.179459	0.135241	14855.579102
5955.625160	1.151466	0.135241	15846.991211
5955.626247	1.123685	0.135241	17068.437500
5955.627215	1.098278	0.135241	18131.570312
5955.628090	0.918970	0.135241	18935.667969
5955.629091	0.122212	0.135241	19058.001953
5955.630170	0.089883	0.135241	19154.986328
5955.631042	0.089952	0.135241	19233.425781
5955.631916	0.090000	0.135241	19312.085937
5955.633012	0.090037	0.135241	19410.765625
5955.633969	0.089945	0.135241	19496.843750
5955.634833	0.089923	0.135241	19574.537109
5955.635848	0.089985	0.135241	19665.873047
5955.636880	0.089934	0.135241	19758.685547
5955.637769	0.089905	0.135241	19838.611328
5956.542496	1.136411	0.185817	578.433228
5956.543534	1.526122	0.185817	2162.547607
5956.544420	1.500095	0.185817	3491.631836
5956.545369	1.459314	0.185817	4876.520508
5956.546434	1.415090	0.185817	6383.591797
5956.547362	1.377598	0.185817	7662.002441
5956.548223	1.343862	0.185817	8819.068359
5956.549299	1.305890	0.185817	10224.206055
5956.550309	1.270631	0.185817	11507.542969
5956.551179	1.241309	0.185817	12587.481445
5956.552152	1.209005	0.185817	13763.843750
5956.553204	1.175054	0.185817	15000.000000
5956.554122	1.146409	0.185817	16052.403320
5956.554993	1.123129	0.185817	17030.648437
5956.556073	1.096022	0.185817	18214.351562
5956.557070	0.710621	0.185817	18922.841797
5956.557964	0.098035	0.185817	19010.484375
5956.558949	0.089956	0.185817	19099.091797
5956.560008	0.089901	0.185817	19194.296875
5956.560902	0.089799	0.185817	19274.576172
5956.561763	0.089952	0.185817	19352.025391
5956.562868	0.089967	0.185817	19451.439453
5956.563841	0.089821	0.185817	19538.833984
5956.564711	0.089894	0.185817	19617.041016
5956.565795	0.090015	0.185817	19714.617187
5956.566821	0.089890	0.185817	19806.843750
5957.646260	1.065769	0.134202	445.491486
5957.647256	1.525056	0.134202	1964.447388
5957.648179	1.504805	0.134202	3353.382080
5957.649049	1.466547	0.134202	4629.277832
5957.650081	1.423857	0.134202	6098.698730
5957.650976	1.387474	0.134202	7340.488281
5957.651853	1.353366	0.134202	8527.389648
5957.652799	1.318568	0.134202	9774.754883
5957.653793	1.284133	0.134202	11051.183594
5957.654728	1.252310	0.134202	12222.092773
5957.655588	1.223170	0.134202	13274.019531
5957.656637	1.189036	0.134202	14521.318359
5957.657548	1.160328	0.134202	15578.377930
5957.658418	1.134082	0.134202	16565.029297
5957.659436	1.110026	0.134202	17695.035156
5957.660411	1.082197	0.134202	18750.177734
5957.661294	0.319266	0.134202	19032.089844
5957.662183	0.090179	0.134202	19112.259766
5957.663287	0.089956	0.134202	19211.570312
5957.664181	0.089934	0.134202	19291.970703
5957.665043	0.089993	0.134202	19369.544922
5957.666062	0.089974	0.134202	19461.228516
5957.667035	0.089985	0.134202	19548.785156
5957.667910	0.089938	0.134202	19627.480469
5957.668766	0.089949	0.134202	19704.476562
5957.669855	0.089945	0.134202	19802.425781
5958.579223	1.132599	0.187041	567.432007
5958.580217	1.526569	0.187041	2084.841309
5958.581112	1.502172	0.187041	3429.284912
5958.582118	1.459003	0.187041	4897.041504
5958.583148	1.416167	0.187041	6355.693359
5958.584050	1.379458	0.187041	7599.964355
5958.584919	1.344551	0.187041	8768.378906
5958.586028	1.306000	0.187041	10216.732422
5958.586989	1.272495	0.187041	11439.600586
5958.587853	1.243312	0.187041	12513.822266
5958.588887	1.209236	0.187041	13764.171875
5958.589939	1.175684	0.187041	15000.991211
5958.590812	1.147874	0.187041	16003.084961
5958.591729	1.123345	0.187041	17033.191406
5958.592809	1.095912	0.187041	18216.775391
5958.593766	0.763191	0.187041	18947.148437
5958.594636	0.103586	0.187041	19037.269531
5958.595653	0.089938	0.187041	19128.736328
5958.596680	0.089971	0.187041	19221.136719
5958.597569	0.090015	0.187041	19301.160156
5958.598507	0.090048	0.187041	19385.625000
5958.599553	0.090015	0.187041	19479.781250
5958.600493	0.089912	0.187041	19564.298828
5958.601412	0.089978	0.187041	19646.988281
5958.602278	0.090000	0.187041	19724.927734
5958.603316	0.089996	0.187041	19818.343750
5959.678490	1.111743	0.134754	579.218140
5959.679549	1.525774	0.134754	2195.012695
5959.680470	1.497729	0.134754	3574.421387
5959.681337	1.458995	0.134754	4839.370117
5959.682409	1.415325	0.134754	6356.598145
5959.683409	1.375199	0.134754	7731.796875
5959.684289	1.341720	0.134754	8912.510742
5959.685301	1.305835	0.134754	10234.015625
5959.686354	1.269320	0.134754	11570.609375
5959.687249	1.238698	0.134754	12679.244141
5959.688111	1.208181	0.134754	13720.696289
5959.689217	1.174017	0.134754	15019.159180
5959.690196	1.144072	0.134754	16139.206055
5959.691068	1.122048	0.134754	17117.632812
5959.692088	1.095388	0.134754	18234.929687
5959.693133	0.645190	0.134754	18909.154297
5959.694025	0.094592	0.134754	18993.531250
5959.694918	0.089923	0.134754	19073.832031
5959.696021	0.089934	0.134754	19173.029297
5959.696966	0.090033	0.134754	19258.111328
5959.697830	0.089941	0.134754	19335.820312
5959.698868	0.089996	0.134754	19429.236328
5959.699886	0.089934	0.134754	19520.789062
5959.700783	0.089894	0.134754	19601.423828
5959.701732	0.090000	0.134754	19686.833984
5959.702760	0.090018	0.134754	19779.373047
5960.619075	1.178269	0.174884	662.187195
5960.620045	1.526858	0.174884	2143.239502
5960.620929	1.501077	0.174884	3470.191406
5960.621928	1.458040	0.174884	4926.772949
5960.622975	1.414896	0.174884	6408.169434
5960.623868	1.378396	0.174884	7639.077148
5960.624756	1.343632	0.174884	8832.221680
5960.625829	1.305436	0.174884	10232.954102
5960.626784	1.272444	0.174884	11448.137695
5960.627648	1.243103	0.174884	12522.178711
5960.628684	1.209016	0.174884	13774.719727
5960.629726	1.175713	0.174884	14999.812500
5960.630605	1.148031	0.174884	16008.931641
5960.631522	1.124121	0.174884	17039.750000
5960.632573	1.096941	0.174884	18192.634766
5960.633534	0.800526	0.174884	18961.939453
5960.634392	0.108743	0.174884	19055.240234
5960.635437	0.089949	0.174884	19149.236328
5960.636464	0.089960	0.174884	19241.625000
5960.637341	0.089945	0.174884	19320.505859
5960.638296	0.090022	0.174884	19406.476562
5960.639338	0.090007	0.174884	19500.263672
5960.640268	0.090007	0.174884	19583.970703
5960.641129	0.089923	0.174884	19661.394531
5960.642184	0.089993	0.174884	19756.335937
5960.643200	0.089916	0.174884	19847.689453
5961.711030	1.052263	0.130053	440.898315
5961.712104	1.525016	0.130053	2078.765137
5961.713120	1.497114	0.130053	3599.833252
5961.714016	1.458431	0.130053	4906.587891
5961.714994	1.418068	0.130053	6293.458008
5961.716060	1.375210	0.130053	7759.431641
5961.716973	1.340215	0.130053	8983.047852
5961.717843	1.307263	0.130053	10120.367187
5961.718946	1.270334	0.130053	11521.545898
5961.719931	1.237024	0.130053	12740.014648
5961.720817	1.207353	0.130053	13809.729492
5961.721824	1.175717	0.130053	14993.675781
5961.722890	1.143380	0.130053	16212.518555
5961.723770	1.120935	0.130053	17198.941406
5961.724650	1.096941	0.130053	18164.250000
5961.725743	0.671957	0.130053	18898.699219
5961.726697	0.094391	0.130053	18988.748047
5961.727553	0.089879	0.130053	19065.685547
5961.728562	0.089978	0.130053	19156.472656
5961.729602	0.089945	0.130053	19250.015625
5961.730491	0.089905	0.130053	19329.941406
5961.731361	0.089934	0.130053	19408.183594
5961.732279	0.089967	0.130053	19490.773437
5961.733265	0.089901	0.130053	19579.416016
5961.734185	0.089879	0.130053	19662.105469
5961.735064	0.089985	0.130053	19741.203125
5962.656710	1.060481	0.175827	458.127777
5962.657580	1.520343	0.175827	1780.826294
5962.658627	1.503501	0.175827	3354.991699
5962.659656	1.459310	0.175827	4856.622070
5962.660548	1.422114	0.175827	6125.147949
5962.661519	1.383362	0.175827	7468.392578
5962.662572	1.342778	0.175827	8882.337891
5962.663494	1.309102	0.175827	10089.330078
5962.664363	1.277816	0.175827	11199.751953
5962.665464	1.241649	0.175827	12566.807617
5962.666452	1.208324	0.175827	13760.631836
5962.667345	1.180049	0.175827	14814.415039
5962.668340	1.149368	0.175827	15958.036133
5962.669391	1.122363	0.175827	17137.640625
5962.670301	1.097842	0.175827	18136.675781
5962.671172	0.833090	0.175827	18862.296875
5962.672281	0.102521	0.175827	18975.992187
5962.673235	0.089908	0.175827	19061.765625
5962.674096	0.089974	0.175827	19139.234375
5962.675132	0.090073	0.175827	19232.550781
5962.676178	0.089989	0.175827	19326.679687
5962.677060	0.089956	0.175827	19406.021484
5962.677977	0.089949	0.175827	19488.503906
5962.679033	0.090062	0.175827	19583.609375
5962.679972	0.089934	0.175827	19668.056641
5962.680832	0.089993	0.175827	19745.451172
5963.743199	1.079194	0.137328	486.716644
5963.744061	1.521716	0.137328	1798.436157
5963.745080	1.503970	0.137328	3330.981445
5963.746112	1.459790	0.137328	4837.484863
5963.747004	1.422367	0.137328	6106.236328
5963.747936	1.384669	0.137328	7396.748047
5963.749002	1.343961	0.137328	8829.411133
5963.749933	1.309966	0.137328	10048.989258
5963.750809	1.278845	0.137328	11169.257812
5963.751867	1.243451	0.137328	12484.829102
5963.752878	1.210060	0.137328	13708.199219
5963.753771	1.180902	0.137328	14762.745117
5963.754736	1.151550	0.137328	15873.991211
5963.755790	1.123510	0.137328	17058.169922
5963.756719	1.099054	0.137328	18079.191406
5963.757582	0.912480	0.137328	18866.662109
5963.758657	0.113427	0.137328	18988.595703
5963.759648	0.089828	0.137328	19077.615234
5963.760527	0.090026	0.137328	19156.748047
5963.761513	0.090037	0.137328	19245.523437
5963.762572	0.089974	0.137328	19340.806641
5963.763463	0.089963	0.137328	19420.964844
5963.764320	0.089971	0.137328	19498.070312
5963.765400	0.090004	0.137328	19595.273437
5963.766394	0.089912	0.137328	19684.646484
5963.767265	0.089930	0.137328	19762.976562
5964.692511	1.129395	0.173418	573.732422
5964.693391	1.524730	0.173418	1915.494995
5964.694274	1.506735	0.173418	3245.941650
5964.695276	1.463738	0.173418	4712.606934
5964.696272	1.421558	0.173418	6128.478516
5964.697166	1.385596	0.173418	7367.201172
5964.698034	1.350893	0.173418	8539.776367
5964.699137	1.312163	0.173418	9987.091797
5964.700042	1.279801	0.173418	11145.311523
5964.700923	1.250332	0.173418	12246.853516
5964.701936	1.216659	0.173418	13479.329102
5964.702933	1.183894	0.173418	14659.671875
5964.703828	1.156099	0.173418	15694.379883
5964.704832	1.128314	0.173418	16827.207031
5964.705894	1.102207	0.173418	17997.750000
5964.706775	1.003905	0.173418	18882.189453
5964.707648	0.176239	0.173418	19036.046875
5964.708742	0.089916	0.173418	19134.414062
5964.709696	0.089916	0.173418	19220.193359
5964.710554	0.089854	0.173418	19297.287109
5964.711621	0.089985	0.173418	19393.300781
5964.712657	0.089883	0.173418	19486.419922
5964.713533	0.089974	0.173418	19565.238281
5964.714454	0.089985	0.173418	19648.115234
5964.715516	0.090037	0.173418	19743.734375
5964.716460	0.089930	0.173418	19828.628906
5965.780968	1.077524	0.132631	506.436493
5965.782044	1.525250	0.132631	2147.605713
5965.782989	1.498206	0.132631	3563.409912
5965.783853	1.460376	0.132631	4825.174805
5965.784913	1.416683	0.132631	6326.859375
5965.785943	1.375400	0.132631	7743.521973
5965.786831	1.341233	0.132631	8934.537109
5965.787796	1.306853	0.132631	10195.650391
5965.788844	1.270269	0.132631	11526.891602
5965.789770	1.239269	0.132631	12674.454102
5965.790632	1.209532	0.132631	13717.071289
5965.791666	1.176698	0.132631	14933.777344
5965.792683	1.145501	0.132631	16098.750977
5965.793578	1.122484	0.132631	17103.375000
5965.794547	1.097673	0.132631	18167.019531
5965.795608	0.690762	0.132631	18899.917969
5965.796526	0.095889	0.132631	18987.943359
5965.797391	0.089956	0.132631	19065.755859
5965.798467	0.090004	0.132631	19162.599609
5965.799455	0.089934	0.132631	19251.455078
5965.800350	0.089875	0.132631	19331.894531
5965.801323	0.089993	0.132631	19419.457031
5965.802376	0.089978	0.132631	19514.203125
5965.803278	0.089854	0.132631	19595.251953
5965.804140	0.090040	0.132631	19672.867187
5965.805222	0.090051	0.132631	19770.302734
5966.725143	1.128036	0.175049	567.402039
5966.726107	1.526290	0.175049	2038.745850
5966.726983	1.503922	0.175049	3356.181641
5966.728011	1.460178	0.175049	4857.245117
5966.729059	1.416581	0.175049	6341.821777
5966.729948	1.380249	0.175049	7568.863281
5966.730839	1.344624	0.175049	8766.923828
5966.731927	1.305736	0.175049	10187.564453
5966.732894	1.272455	0.175049	11418.028320
5966.733765	1.243165	0.175049	12500.825195
5966.734795	1.208826	0.175049	13745.916016
5966.735833	1.175643	0.175049	14966.233398
5966.736733	1.147756	0.175049	15999.213867
5966.737685	1.123173	0.175049	17068.474609
5966.738735	1.095615	0.175049	18218.871094
5966.739683	0.767930	0.175049	18946.869141
5966.740547	0.103934	0.175049	19036.667969
5966.741615	0.089927	0.175049	19132.708984
5966.742610	0.089894	0.175049	19222.152344
5966.743499	0.089883	0.175049	19302.058594
5966.744467	0.089996	0.175049	19389.175781
5966.745510	0.089949	0.175049	19482.992187
5966.746425	0.089974	0.175049	19565.318359
5966.747289	0.089919	0.175049	19643.007812
5966.748363	0.089974	0.175049	19739.640625
5966.749356	0.089949	0.175049	19828.958984
5967.817780	1.145764	0.132297	625.587219
5967.818841	1.525887	0.132297	2244.553955
5967.819752	1.496587	0.132297	3607.944580
5967.820621	1.457483	0.132297	4874.497070
5967.821708	1.413783	0.132297	6411.279297
5967.822663	1.375206	0.132297	7724.601074
5967.823544	1.341984	0.132297	8906.888672
5967.824561	1.305564	0.132297	10234.647461
5967.825602	1.269441	0.132297	11556.135742
5967.826481	1.239639	0.132297	12645.778320
5967.827361	1.209375	0.132297	13710.028320
5967.828450	1.175405	0.132297	14990.044922
5967.829422	1.145585	0.132297	16103.552734
5967.830356	1.122305	0.132297	17151.785156
5967.831218	1.098988	0.132297	18099.113281
5967.832254	0.785841	0.132297	18913.244141
5967.833152	0.104165	0.132297	19006.785156
5967.834028	0.089861	0.132297	19085.503906
5967.834909	0.089923	0.132297	19164.726562
5967.835932	0.089916	0.132297	19256.710937
5967.836821	0.089854	0.132297	19336.589844
5967.837694	0.089857	0.132297	19415.035156
5967.838700	0.089971	0.132297	19505.544922
5967.839636	0.089938	0.132297	19589.726562
5967.840556	0.089952	0.132297	19672.482422
5967.841417	0.089919	0.132297	19749.902344
5968.757176	1.068886	0.172245	451.069702
5968.758274	1.524778	0.172245	2125.275879
5968.759256	1.497202	0.172245	3595.528320
5968.760129	1.459288	0.172245	4869.486816
5968.761188	1.414918	0.172245	6367.885254
5968.762228	1.373932	0.172245	7796.774414
5968.763120	1.339475	0.172245	8991.585937
5968.764058	1.305853	0.172245	10216.476562
5968.765121	1.268789	0.172245	11565.199219
5968.766072	1.237244	0.172245	12741.818359
5968.766943	1.207940	0.172245	13793.933594
5968.767996	1.174332	0.172245	15030.505859
5968.769025	1.142875	0.172245	16206.523437
5968.769915	1.120540	0.172245	17203.802734
5968.770873	1.095315	0.172245	18253.115234
5968.771930	0.630630	0.172245	18919.691406
5968.772846	0.093816	0.172245	19005.626953
5968.773708	0.089908	0.172245	19083.128906
5968.774790	0.090121	0.172245	19180.640625
5968.775792	0.089996	0.172245	19270.816406
5968.776668	0.089945	0.172245	19349.607422
5968.777664	0.090077	0.172245	19439.324219
5968.778695	0.089963	0.172245	19532.076172
5968.779594	0.089890	0.172245	19612.886719
5968.780454	0.090011	0.172245	19690.296875
5968.781506	0.089971	0.172245	19784.945312
5969.856442	1.047294	0.129368	439.863342
5969.857397	1.519468	0.129368	1890.955078
5969.858450	1.500341	0.129368	3470.813721
5969.859387	1.459786	0.129368	4838.633301
5969.860257	1.422682	0.129368	6076.366699
5969.861340	1.379696	0.129368	7570.577637
5969.862347	1.341335	0.129368	8921.302734
5969.863240	1.308893	0.129368	10090.144531
5969.864224	1.274897	0.129368	11344.643555
5969.865276	1.239781	0.129368	12648.893555
5969.866180	1.208983	0.129368	13741.814453
5969.867043	1.180338	0.129368	14760.446289
5969.868138	1.147756	0.129368	16017.239258
5969.869130	1.121781	0.129368	17130.046875
5969.870014	1.098863	0.129368	18101.441406
5969.871031	0.787101	0.129368	18901.923828
5969.872069	0.099016	0.129368	19004.703125
5969.872946	0.089868	0.129368	19083.517578
5969.873813	0.089971	0.129368	19161.521484
5969.874916	0.090000	0.129368	19260.791016
5969.875856	0.089927	0.129368	19345.322266
5969.876727	0.090004	0.129368	19423.714844
5969.877740	0.089985	0.129368	19514.869141
5969.878774	0.089960	0.129368	19607.886719
5969.879666	0.089960	0.129368	19688.130859
5969.880574	0.089978	0.129368	19769.830078
5970.788394	1.144025	0.175609	612.053223
5970.789332	1.526155	0.175609	2043.586548
5970.790212	1.503538	0.175609	3366.699707
5970.791188	1.462006	0.175609	4793.617187
5970.792197	1.419452	0.175609	6225.844238
5970.793078	1.383603	0.175609	7444.798828
5970.793942	1.349579	0.175609	8610.834961
5970.795030	1.310999	0.175609	10037.201172
5970.795955	1.278259	0.175609	11219.590820
5970.796825	1.248629	0.175609	12305.898437
5970.797798	1.216256	0.175609	13489.315430
5970.798820	1.183173	0.175609	14698.517578
5970.799721	1.155297	0.175609	15739.439453
5970.800588	1.129746	0.175609	16718.929687
5970.801655	1.104283	0.175609	17897.199219
5970.802603	1.022846	0.175609	18866.857422
5970.803475	0.191331	0.175609	19033.697266
5970.804553	0.089963	0.175609	19130.677734
5970.805552	0.089982	0.175609	19220.570312
5970.806446	0.089930	0.175609	19300.968750
5970.807404	0.090048	0.175609	19387.234375
5970.808451	0.089993	0.175609	19481.457031
5970.809359	0.089897	0.175609	19563.083984
5970.810222	0.089901	0.175609	19640.667969
5970.811289	0.089996	0.175609	19736.693359
5970.812278	0.089952	0.175609	19825.656250
5971.894807	1.135166	0.126254	581.205017
5971.895745	1.526023	0.126254	2012.614502
5971.896609	1.505068	0.126254	3312.993652
5971.897659	1.459904	0.126254	4845.892578
5971.898674	1.417668	0.126254	6284.826172
5971.899569	1.381520	0.126254	7521.286133
5971.900533	1.345309	0.126254	8818.164062
5971.901590	1.306414	0.126254	10199.042969
5971.902515	1.273879	0.126254	11377.381836
5971.903380	1.244253	0.126254	12453.660156
5971.904461	1.209214	0.126254	13760.820312
5971.905467	1.176720	0.126254	14944.600586
5971.906351	1.149488	0.126254	15960.748047
5971.907351	1.123531	0.126254	17084.279297
5971.908403	1.095927	0.126254	18237.193359
5971.909307	0.807118	0.126254	18966.828125
5971.910168	0.109438	0.126254	19061.054687
5971.911252	0.090051	0.126254	19158.669922
5971.912234	0.089901	0.126254	19246.953125
5971.913118	0.089912	0.126254	19326.435547
5971.913995	0.089993	0.126254	19405.359375
5971.914977	0.089956	0.126254	19493.695312
5971.915898	0.090037	0.126254	19576.619141
5971.916815	0.089974	0.126254	19659.125000
5971.917680	0.089934	0.126254	19736.917969
5971.918724	0.089857	0.126254	19830.728516
5972.821014	1.134258	0.174401	573.934509
5972.822021	1.526301	0.174401	2110.919922
5972.822910	1.501194	0.174401	3445.481201
5972.823887	1.459274	0.174401	4871.191406
5972.824950	1.414988	0.174401	6375.323242
5972.825860	1.378198	0.174401	7629.483398
5972.826730	1.343683	0.174401	8798.487305
5972.827830	1.305051	0.174401	10234.043945
5972.828807	1.270708	0.174401	11475.525391
5972.829689	1.241451	0.174401	12570.485352
5972.830700	1.208265	0.174401	13792.041992
5972.831748	1.175043	0.174401	15023.486328
5972.832635	1.146932	0.174401	16040.815430
5972.833517	1.123077	0.174401	17031.369141
5972.834619	1.095333	0.174401	18238.425781
5972.835583	0.736948	0.174401	18948.843750
5972.836442	0.101627	0.174401	19036.140625
5972.837476	0.089989	0.174401	19129.189453
5972.838516	0.090026	0.174401	19222.816406
5972.839385	0.089949	0.174401	19300.982422
5972.840291	0.090004	0.174401	19382.525391
5972.841376	0.090000	0.174401	19480.175781
5972.842324	0.089974	0.174401	19565.470703
5972.843191	0.089916	0.174401	19643.427734
5972.844212	0.089996	0.174401	19735.314453
5972.845241	0.089963	0.174401	19827.886719
5973.929938	1.078484	0.124486	474.532867
5973.930809	1.520687	0.124486	1799.051392
5973.931844	1.503973	0.124486	3355.663818
5973.932738	1.465228	0.124486	4665.578125
5973.933601	1.428160	0.124486	5898.080566
5973.934631	1.386482	0.124486	7326.157227
5973.935577	1.350176	0.124486	8603.423828
5973.936462	1.317715	0.124486	9769.601562
5973.937418	1.284452	0.124486	10997.537109
5973.938453	1.249047	0.124486	12290.300781
5973.939359	1.218428	0.124486	13394.196289
5973.940228	1.190273	0.124486	14428.543945
5973.941297	1.157102	0.124486	15665.486328
5973.942253	1.129867	0.124486	16745.638672
5973.943135	1.108700	0.124486	17723.511719
5973.944098	1.061173	0.124486	18745.421875
5973.945127	0.198717	0.124486	18949.902344
5973.946007	0.089740	0.124486	19028.873047
5973.946960	0.089982	0.124486	19114.625000
5973.947997	0.089890	0.124486	19207.841797
5973.948930	0.089967	0.124486	19291.781250
5973.949787	0.089949	0.124486	19368.867187
5973.950833	0.089996	0.124486	19463.003906
5973.951845	0.089894	0.124486	19553.976562
5973.952714	0.089879	0.124486	19632.082031
5973.953672	0.089952	0.124486	19718.255859
5974.856142	1.079249	0.173824	478.107422
5974.857145	1.521910	0.173824	2004.583618
5974.858209	1.497774	0.173824	3598.214600
5974.859103	1.458061	0.173824	4901.721680
5974.859990	1.419877	0.173824	6161.152344
5974.861086	1.377195	0.173824	7670.557617
5974.862033	1.341119	0.173824	8940.597656
5974.862898	1.309574	0.173824	10073.378906
5974.863954	1.273121	0.173824	11417.794922
5974.864987	1.238382	0.173824	12697.043945
5974.865875	1.208639	0.173824	13770.315430
5974.866822	1.178481	0.173824	14886.337891
5974.867890	1.145380	0.173824	16109.603516
5974.868825	1.121400	0.173824	17158.113281
5974.869686	1.098314	0.173824	18103.761719
5974.870741	0.740885	0.173824	18885.394531
5974.871768	0.095083	0.173824	18983.044922
5974.872662	0.089832	0.173824	19063.353516
5974.873624	0.090004	0.173824	19149.937500
5974.874678	0.089967	0.173824	19244.763672
5974.875597	0.089901	0.173824	19327.382812
5974.876463	0.089967	0.173824	19405.294922
5974.877549	0.089974	0.173824	19503.007812
5974.878543	0.089883	0.173824	19592.351562
5974.879429	0.089934	0.173824	19672.033203
5974.880419	0.090044	0.173824	19761.175781
5975.965639	1.069607	0.121243	464.209442
5975.966503	1.519794	0.121243	1777.311279
5975.967602	1.501663	0.121243	3427.638672
5975.968571	1.460083	0.121243	4842.458984
5975.969438	1.423660	0.121243	6076.771973
5975.970479	1.381589	0.121243	7515.006836
5975.971520	1.342178	0.121243	8912.213867
5975.972408	1.309417	0.121243	10074.975586
5975.973337	1.277194	0.121243	11261.488281
5975.974410	1.241122	0.121243	12593.211914
5975.975357	1.209749	0.121243	13738.843750
5975.976221	1.181290	0.121243	14759.478516
5975.977295	1.148664	0.121243	15993.144531
5975.978319	1.121990	0.121243	17142.062500
5975.979194	1.098358	0.121243	18103.125000
5975.980164	0.812977	0.121243	18891.712891
5975.981218	0.100254	0.121243	18997.380859
5975.982131	0.089894	0.121243	19079.453125
5975.983003	0.089960	0.121243	19157.898437
5975.984061	0.090022	0.121243	19253.142578
5975.985056	0.089916	0.121243	19342.609375
5975.985951	0.089952	0.121243	19423.117187
5975.986918	0.090007	0.121243	19510.154297
5975.987966	0.089978	0.121243	19604.451172
5975.988875	0.089901	0.121243	19686.171875
5975.989737	0.090015	0.121243	19763.763672
5976.892361	1.064623	0.172157	457.787842
5976.893311	1.519699	0.172157	1901.501465
5976.894356	1.500535	0.172157	3469.560059
5976.895283	1.460127	0.172157	4823.097656
5976.896201	1.422089	0.172157	6128.575195
5976.897068	1.386068	0.172157	7330.296387
5976.898089	1.347524	0.172157	8706.119141
5976.898994	1.314089	0.172157	9895.370117
5976.899874	1.283309	0.172157	11024.682617
5976.900789	1.251852	0.172157	12170.126953
5976.901786	1.218900	0.172157	13385.370117
5976.902699	1.189058	0.172157	14470.979492
5976.903589	1.161379	0.172157	15504.607422
5976.904607	1.132397	0.172157	16657.388672
5976.905510	1.110216	0.172157	17659.914062
5976.906428	1.084761	0.172157	18655.724609
5976.907292	0.410186	0.172157	19010.125000
5976.908340	0.089949	0.172157	19104.390625
5976.909214	0.089963	0.172157	19183.019531
5976.910080	0.090037	0.172157	19260.992187
5976.911161	0.090029	0.172157	19358.314453
5976.912079	0.089971	0.172157	19440.908203
5976.912959	0.089971	0.172157	19520.082031
5976.913929	0.090026	0.172157	19607.406250
5976.914923	0.089952	0.172157	19696.818359
5976.915808	0.089985	0.172157	19776.455078
5976.916672	0.090000	0.172157	19854.214844
5977.998282	1.081175	0.120373	475.717194
5977.999159	1.521412	0.120373	1809.995850
5978.000150	1.505321	0.120373	3301.769043
5978.001205	1.460248	0.120373	4842.330566
5978.002103	1.422209	0.120373	6119.474609
5978.002977	1.385416	0.120373	7330.328125
5978.004083	1.344239	0.120373	8817.056641
5978.005057	1.309211	0.120373	10092.228516
5978.005924	1.278659	0.120373	11200.825195
5978.006982	1.243044	0.120373	12515.966797
5978.008012	1.208917	0.120373	13761.151367
5978.008897	1.180016	0.120373	14805.465820
5978.009832	1.151693	0.120373	15882.298828
5978.010884	1.123433	0.120373	17064.150391
5978.011823	1.098893	0.120373	18096.011719
5978.012688	0.940042	0.120373	18909.148437
5978.013746	0.116906	0.120373	19032.833984
5978.014758	0.089886	0.120373	19123.798828
5978.015627	0.089971	0.120373	19201.982422
5978.016585	0.090018	0.120373	19288.220703
5978.017630	0.089996	0.120373	19382.267578
5978.018552	0.089919	0.120373	19465.173828
5978.019423	0.090051	0.120373	19543.609375
5978.020469	0.090044	0.120373	19637.794922
5978.021471	0.089934	0.120373	19727.908203
5978.022363	0.089982	0.120373	19808.171875
5978.929081	1.048894	0.168854	441.584381
5978.929944	1.518757	0.168854	1752.271973
5978.931066	1.501787	0.168854	3437.277344
5978.931972	1.461976	0.168854	4761.828125
5978.932839	1.424432	0.168854	5996.811035
5978.933915	1.382113	0.168854	7483.964844
5978.934886	1.344928	0.168854	8789.889648
5978.935763	1.312947	0.168854	9941.343750
5978.936773	1.278054	0.168854	11232.178711
5978.937825	1.242814	0.168854	12539.619141
5978.938714	1.212839	0.168854	13617.833008
5978.939605	1.182693	0.168854	14671.612305
5978.940692	1.150283	0.168854	15921.970703
5978.941651	1.124535	0.168854	17000.400391
5978.942513	1.102679	0.168854	17950.910156
5978.943534	0.883041	0.168854	18852.494141
5978.944563	0.111174	0.168854	18966.892578
5978.945447	0.089769	0.168854	19046.248047
5978.946368	0.089989	0.168854	19129.128906
5978.947432	0.090040	0.168854	19224.931641
5978.948372	0.090015	0.168854	19309.544922
5978.949241	0.089949	0.168854	19387.710937
5978.950272	0.089989	0.168854	19480.490234
5978.951293	0.089967	0.168854	19572.345703
5978.952191	0.090011	0.168854	19653.175781
5978.953135	0.089974	0.168854	19738.111328
5980.030991	1.115962	0.119212	564.676697
5980.031875	1.524639	0.119212	1912.457275
5980.032744	1.505347	0.119212	3220.603516
5980.033854	1.459435	0.119212	4840.576172
5980.034827	1.419192	0.119212	6221.450195
5980.035703	1.383790	0.119212	7433.650391
5980.036726	1.344262	0.119212	8808.830078
5980.037769	1.306882	0.119212	10171.908203
5980.038666	1.275136	0.119212	11315.705078
5980.039600	1.243696	0.119212	12477.317383
5980.040682	1.207800	0.119212	13784.157227
5980.041636	1.177570	0.119212	14907.558594
5980.042507	1.149987	0.119212	15909.197266
5980.043563	1.122462	0.119212	17094.517578
5980.044578	1.096245	0.119212	18207.207031
5980.045465	0.830610	0.119212	18943.958984
5980.046342	0.112654	0.119212	19042.755859
5980.047312	0.089916	0.119212	19129.974609
5980.048268	0.089923	0.119212	19215.941406
5980.049185	0.090022	0.119212	19298.492187
5980.050046	0.089996	0.119212	19375.978516
5980.051056	0.089974	0.119212	19466.853516
5980.051958	0.089923	0.119212	19547.964844
5980.052831	0.089993	0.119212	19626.529297
5980.053711	0.090051	0.119212	19705.773437
5980.054754	0.089956	0.119212	19799.597656
5980.966448	1.138304	0.163866	619.237610
5980.967493	1.525561	0.163866	2213.449219
5980.968400	1.497422	0.163866	3571.610840
5980.969265	1.458461	0.163866	4833.179199
5980.970370	1.414076	0.163866	6395.732910
5980.971349	1.375034	0.163866	7741.891602
5980.972221	1.341500	0.163866	8911.679687
5980.973251	1.304898	0.163866	10255.724609
5980.974294	1.268822	0.163866	11579.106445
5980.975175	1.238859	0.163866	12670.541016
5980.976062	1.207822	0.163866	13741.878906
5980.977176	1.173812	0.163866	15049.505859
5980.978125	1.144270	0.163866	16135.417969
5980.978988	1.122272	0.163866	17103.937500
5980.980014	1.095256	0.163866	18227.669922
5980.981064	0.642286	0.163866	18902.070312
5980.981953	0.094819	0.163866	18986.365234
5980.982887	0.089960	0.163866	19070.386719
5980.983964	0.089963	0.163866	19167.277344
5980.984897	0.089854	0.163866	19251.111328
5980.985764	0.089927	0.163866	19329.078125
5980.986825	0.090055	0.163866	19424.626953
5980.987838	0.089875	0.163866	19515.669922
5980.988732	0.089912	0.163866	19596.050781
5980.989690	0.089996	0.163866	19682.267578
5980.990760	0.089956	0.163866	19778.521484
5982.064606	1.078872	0.117001	487.650177
5982.065473	1.521328	0.117001	1806.641602
5982.066494	1.504102	0.117001	3342.329102
5982.067555	1.459098	0.117001	4890.431641
5982.068428	1.421375	0.117001	6131.291504
5982.069314	1.384318	0.117001	7357.796875
5982.070418	1.343313	0.117001	8840.814453
5982.071378	1.308501	0.117001	10096.975586
5982.072252	1.277776	0.117001	11213.751953
5982.073272	1.243282	0.117001	12481.900391
5982.074301	1.209375	0.117001	13726.347656
5982.075194	1.180378	0.117001	14780.425781
5982.076138	1.151591	0.117001	15867.527344
5982.077200	1.123088	0.117001	17060.248047
5982.078138	1.098750	0.117001	18090.875000
5982.079011	0.911884	0.117001	18886.949219
5982.080104	0.107010	0.117001	19003.912109
5982.081102	0.089846	0.117001	19093.578125
5982.081993	0.089919	0.117001	19173.697266
5982.082960	0.089971	0.117001	19260.699219
5982.084009	0.089846	0.117001	19354.947266
5982.084911	0.089927	0.117001	19436.060547
5982.085769	0.089912	0.117001	19513.205078
5982.086845	0.089971	0.117001	19610.013672
5982.087838	0.089894	0.117001	19699.277344
5982.088717	0.089894	0.117001	19778.294922
5983.002560	1.054395	0.162916	451.280884
5983.003487	1.519069	0.162916	1859.457520
5983.004467	1.503124	0.162916	3332.518799
5983.005392	1.464020	0.162916	4686.737305
5983.006257	1.426282	0.162916	5920.470703
5983.007354	1.383995	0.162916	7438.713867
5983.008250	1.348704	0.162916	8647.152344
5983.009131	1.316602	0.162916	9807.078125
5983.010126	1.281786	0.162916	11082.455078
5983.011125	1.247886	0.162916	12329.092773
5983.012018	1.218021	0.162916	13416.786133
5983.012890	1.188977	0.162916	14453.574219
5983.013969	1.156326	0.162916	15701.250000
5983.014863	1.130284	0.162916	16711.724609
5983.015738	1.109729	0.162916	17682.738281
5983.016754	1.053765	0.162916	18753.363281
5983.017761	0.196128	0.162916	18950.863281
5983.018634	0.089810	0.162916	19029.267578
5983.019609	0.090048	0.162916	19117.064453
5983.020649	0.090011	0.162916	19210.675781
5983.021546	0.089945	0.162916	19291.357422
5983.022411	0.089982	0.162916	19369.191406
5983.023494	0.090077	0.162916	19466.744141
5983.024463	0.089945	0.162916	19553.900391
5983.025343	0.089945	0.162916	19633.052734
5983.026330	0.090095	0.162916	19721.976562
5984.098243	1.059749	0.118709	454.632111
5984.099166	1.519636	0.118709	1857.256348
5984.100222	1.501014	0.118709	3442.327637
5984.101176	1.460200	0.118709	4835.358398
5984.102041	1.423638	0.118709	6066.804687
5984.103092	1.381688	0.118709	7518.958984
5984.104123	1.342291	0.118709	8902.861328
5984.105012	1.309600	0.118709	10067.095703
5984.105973	1.276578	0.118709	11293.887695
5984.107030	1.240737	0.118709	12605.346680
5984.107945	1.210115	0.118709	13712.601562
5984.108816	1.181433	0.118709	14741.629883
5984.109872	1.149155	0.118709	15955.137695
5984.110895	1.122187	0.118709	17103.134766
5984.111786	1.099325	0.118709	18082.632812
5984.112766	0.826212	0.118709	18892.320312
5984.113825	0.100972	0.118709	18999.250000
5984.114730	0.089908	0.118709	19080.617187
5984.115592	0.089982	0.118709	19158.181641
5984.116676	0.090033	0.118709	19255.777344
5984.117671	0.089949	0.118709	19345.275391
5984.118558	0.089945	0.118709	19425.056641
5984.119545	0.090029	0.118709	19513.916016
5984.120587	0.090015	0.118709	19607.710937
5984.121499	0.089952	0.118709	19689.748047
5984.122369	0.090059	0.118709	19768.099609
5985.038265	1.050007	0.164757	444.153107
5985.039231	1.519043	0.164757	1911.548584
5985.040290	1.499747	0.164757	3499.781006
5985.041215	1.459358	0.164757	4849.687012
5985.042078	1.422385	0.164757	6077.205566
5985.043157	1.380267	0.164757	7566.514160
5985.044153	1.341797	0.164757	8902.943359
5985.045032	1.309585	0.164757	10054.068359
5985.046005	1.275747	0.164757	11295.370117
5985.047061	1.240459	0.164757	12605.294922
5985.047973	1.209862	0.164757	13708.689453
5985.048845	1.180781	0.164757	14738.331055
5985.049937	1.147903	0.164757	15991.840820
5985.050934	1.121726	0.164757	17110.201172
5985.051828	1.098897	0.164757	18092.615234
5985.052818	0.807063	0.164757	18891.607422
5985.053877	0.098654	0.164757	18996.082031
5985.054765	0.089960	0.164757	19075.966797
5985.055646	0.090062	0.164757	19155.312500
5985.056738	0.090084	0.164757	19253.683594
5985.057689	0.089978	0.164757	19339.251953
5985.058556	0.089963	0.164757	19417.250000
5985.059576	0.090092	0.164757	19509.142578
5985.060600	0.090044	0.164757	19601.347656
5985.061479	0.089996	0.164757	19680.455078
5985.062390	0.089996	0.164757	19762.441406
5986.132928	1.062228	0.115051	452.509064
5986.133969	1.525455	0.115051	2040.507935
5986.134861	1.503322	0.115051	3381.470703
5986.135728	1.464840	0.115051	4651.487305
5986.136793	1.421235	0.115051	6165.103027
5986.137726	1.383373	0.115051	7455.790039
5986.138609	1.349407	0.115051	8647.316406
5986.139579	1.314525	0.115051	9922.406250
5986.140601	1.278369	0.115051	11228.899414
5986.141494	1.248193	0.115051	12343.536133
5986.142357	1.218373	0.115051	13394.992187
5986.143408	1.184854	0.115051	14640.273437
5986.144348	1.155619	0.115051	15726.554687
5986.145219	1.130468	0.115051	16711.191406
5986.146264	1.105023	0.115051	17865.941406
5986.147281	0.983910	0.115051	18866.578125
5986.148173	0.164989	0.115051	19013.748047
5986.149130	0.089971	0.115051	19099.849609
5986.150176	0.090022	0.115051	19194.011719
5986.151102	0.089993	0.115051	19277.345703
5986.151965	0.090022	0.115051	19355.035156
5986.153034	0.090099	0.115051	19451.351562
5986.154028	0.089938	0.115051	19540.750000
5986.154920	0.089985	0.115051	19621.017578
5986.155897	0.090070	0.115051	19709.015625
5986.156948	0.090033	0.115051	19803.640625
5987.073052	1.134767	0.160088	576.461609
5987.074038	1.526235	0.160088	2081.329590
5987.074933	1.501523	0.160088	3425.193115
5987.075937	1.458625	0.160088	4889.653320
5987.076993	1.415090	0.160088	6383.988770
5987.077871	1.379022	0.160088	7594.770020
5987.078746	1.345518	0.160088	8772.097656
5987.079615	1.312247	0.160088	9912.440430
5987.080677	1.276626	0.160088	11268.216797
5987.081557	1.246575	0.160088	12365.202148
5987.082432	1.217703	0.160088	13430.691406
5987.083418	1.186084	0.160088	14600.169922
5987.084347	1.156238	0.160088	15674.314453
5987.085280	1.129995	0.160088	16728.599609
5987.086150	1.109000	0.160088	17693.429687
5987.087201	1.063480	0.160088	18811.148437
5987.088096	0.232269	0.160088	19019.029297
5987.088974	0.089886	0.160088	19097.949219
5987.089952	0.089989	0.160088	19185.958984
5987.090908	0.089883	0.160088	19271.886719
5987.091788	0.090022	0.160088	19351.105469
5987.092711	0.090007	0.160088	19434.181641
5987.093771	0.089963	0.160088	19529.542969
5987.094650	0.089985	0.160088	19608.640625
5987.095512	0.089978	0.160088	19686.201172
5987.096528	0.090092	0.160088	19777.734375
5988.167136	1.095875	0.115869	505.198486
5988.168012	1.522064	0.115869	1838.526733
5988.168996	1.505376	0.115869	3319.816650
5988.170055	1.459713	0.115869	4865.652832
5988.170963	1.421144	0.115869	6156.051270
5988.171823	1.385197	0.115869	7347.320312
5988.172916	1.344584	0.115869	8816.950195
5988.173914	1.308040	0.115869	10122.374023
5988.174789	1.277172	0.115869	11239.899414
5988.175792	1.243850	0.115869	12487.481445
5988.176859	1.208500	0.115869	13776.951172
5988.177755	1.179324	0.115869	14833.625000
5988.178630	1.150865	0.115869	15840.631836
5988.179737	1.122825	0.115869	17083.599609
5988.180704	1.098029	0.115869	18145.392578
5988.181582	0.901216	0.115869	18936.660156
5988.182600	0.111639	0.115869	19050.308594
5988.183637	0.089956	0.115869	19143.593750
5988.184529	0.089890	0.115869	19223.775391
5988.185434	0.089960	0.115869	19305.189453
5988.186501	0.089982	0.115869	19401.199219
5988.187451	0.090004	0.115869	19486.703125
5988.188314	0.089974	0.115869	19564.351562
5988.189357	0.090077	0.115869	19658.302734
5988.190370	0.089963	0.115869	19749.435547
5988.191256	0.089886	0.115869	19829.074219
5989.107645	1.050714	0.159065	442.350647
5989.108508	1.518812	0.159065	1753.085693
5989.109626	1.501003	0.159065	3431.207520
5989.110598	1.459464	0.159065	4849.806641
5989.111467	1.422876	0.159065	6086.286133
5989.112545	1.379905	0.159065	7573.823242
5989.113567	1.340716	0.159065	8944.035156
5989.114451	1.308292	0.159065	10100.565430
5989.115381	1.275773	0.159065	11287.034180
5989.116440	1.240327	0.159065	12600.541016
5989.117384	1.209115	0.159065	13741.945312
5989.118253	1.180833	0.159065	14768.088867
5989.119312	1.148324	0.159065	15984.164062
5989.120329	1.122312	0.159065	17125.554687
5989.121207	1.098992	0.159065	18090.468750
5989.122169	0.819536	0.159065	18878.863281
5989.123232	0.101752	0.159065	18987.025391
5989.124132	0.089956	0.159065	19067.986328
5989.124998	0.090040	0.159065	19145.960937
5989.126058	0.090084	0.159065	19241.451172
5989.127055	0.090015	0.159065	19331.195312
5989.127950	0.089956	0.159065	19411.705078
5989.128920	0.090048	0.159065	19499.050781
5989.129971	0.090059	0.159065	19593.703125
5989.130890	0.089978	0.159065	19676.392578
5989.131755	0.089996	0.159065	19754.240234
5990.202409	1.154868	0.115563	603.996033
5990.203445	1.525741	0.115563	2184.663574
5990.204336	1.499051	0.115563	3520.318359
5990.205279	1.458325	0.115563	4895.519043
5990.206357	1.413204	0.115563	6418.953125
5990.207298	1.375591	0.115563	7713.383789
5990.208210	1.341057	0.115563	8936.427734
5990.209092	1.308717	0.115563	10090.715820
5990.210142	1.272828	0.115563	11427.185547
5990.211034	1.242601	0.115563	12535.585937
5990.211915	1.213180	0.115563	13604.397461
5990.212864	1.182682	0.115563	14726.762695
5990.213852	1.152074	0.115563	15865.011719
5990.214777	1.126967	0.115563	16907.455078
5990.215650	1.105111	0.115563	17872.216797
5990.216689	0.981958	0.115563	18892.470703
5990.217568	0.160375	0.115563	19033.439453
5990.218445	0.089890	0.115563	19112.273437
5990.219339	0.090095	0.115563	19192.818359
5990.220361	0.090015	0.115563	19284.812500
5990.221258	0.090103	0.115563	19365.634766
5990.222127	0.090011	0.115563	19443.853516
5990.223215	0.090062	0.115563	19541.841797
5990.224123	0.089894	0.115563	19623.464844
5990.225002	0.090000	0.115563	19702.574219
5990.226004	0.090106	0.115563	19792.861328
5991.141303	1.050549	0.159286	442.281250
5991.142344	1.523415	0.159286	2028.156738
5991.143389	1.496799	0.159286	3592.312012
5991.144285	1.458047	0.159286	4898.722168
5991.145244	1.418624	0.159286	6259.182617
5991.146306	1.375624	0.159286	7720.094727
5991.147234	1.340149	0.159286	8963.752930
5991.148100	1.308040	0.159286	10096.515625
5991.149180	1.271008	0.159286	11469.205078
5991.150187	1.237291	0.159286	12715.157227
5991.151078	1.207654	0.159286	13791.176758
5991.152057	1.176929	0.159286	14943.389648
5991.153110	1.144296	0.159286	16148.333008
5991.154013	1.121224	0.159286	17160.798828
5991.154874	1.097739	0.159286	18105.953125
5991.155987	0.696302	0.159286	18880.937500
5991.156977	0.093940	0.159286	18973.939453
5991.157857	0.089843	0.159286	19053.000000
5991.158876	0.090007	0.159286	19144.716797
5991.159931	0.089941	0.159286	19239.605469
5991.160807	0.089982	0.159286	19318.429687
5991.161668	0.089978	0.159286	19395.900391
5991.162764	0.090011	0.159286	19494.552734
5991.163722	0.089905	0.159286	19580.681641
5991.164586	0.090015	0.159286	19658.455078
5991.165599	0.090103	0.159286	19749.728516
5992.238520	1.060613	0.114233	447.578613
5992.239615	1.524833	0.114233	2117.270508
5992.240544	1.499473	0.114233	3510.280518
5992.241412	1.460757	0.114233	4778.217285
5992.242484	1.417108	0.114233	6297.357422
5992.243469	1.377367	0.114233	7654.063965
5992.244367	1.343240	0.114233	8860.292969
5992.245368	1.307640	0.114233	10169.241211
5992.246404	1.271341	0.114233	11486.350586
5992.247301	1.240829	0.114233	12599.374023
5992.248161	1.210792	0.114233	13640.655273
5992.249260	1.176870	0.114233	14934.035156
5992.250235	1.146932	0.114233	16052.293945
5992.251110	1.123839	0.114233	17035.652344
5992.252112	1.098182	0.114233	18136.031250
5992.253172	0.748213	0.114233	18929.136719
5992.254042	0.101067	0.114233	19017.064453
5992.254910	0.089938	0.114233	19095.130859
5992.256014	0.090018	0.114233	19194.511719
5992.256965	0.089956	0.114233	19280.060547
5992.257832	0.090044	0.114233	19358.128906
5992.258835	0.090088	0.114233	19448.486328
5992.259873	0.089919	0.114233	19541.822266
5992.260757	0.090062	0.114233	19621.437500
5992.261666	0.090022	0.114233	19703.267578
5992.262744	0.090040	0.114233	19800.330078
5993.173462	1.074045	0.157764	473.653992
5993.174327	1.520684	0.157764	1789.045166
5993.175351	1.504164	0.157764	3329.309082
5993.176413	1.458933	0.157764	4878.696289
5993.177301	1.421272	0.157764	6140.786133
5993.178173	1.385735	0.157764	7349.146973
5993.179063	1.349982	0.157764	8550.630859
5993.180111	1.312643	0.157764	9926.280273
5993.181007	1.281270	0.157764	11074.297852
5993.181888	1.251442	0.157764	12176.818359
5993.182878	1.219146	0.157764	13383.772461
5993.183806	1.188131	0.157764	14486.358398
5993.184726	1.159633	0.157764	15553.220703
5993.185594	1.133262	0.157764	16536.892578
5993.186643	1.109121	0.157764	17700.361328
5993.187536	1.083765	0.157764	18668.164062
5993.188415	0.384675	0.157764	19006.292969
5993.189423	0.090612	0.157764	19097.628906
5993.190351	0.089989	0.157764	19181.138672
5993.191218	0.090026	0.157764	19259.191406
5993.192170	0.090073	0.157764	19344.941406
5993.193199	0.089923	0.157764	19437.472656
5993.194091	0.089993	0.157764	19517.746094
5993.194953	0.089916	0.157764	19595.253906
5993.196009	0.090000	0.157764	19690.292969
5993.196951	0.089927	0.157764	19775.003906
5993.197829	0.090007	0.157764	19854.031250
5994.275871	1.138993	0.111337	580.886353
5994.276816	1.525463	0.111337	2022.448486
5994.277683	1.504120	0.111337	3326.520508
5994.278742	1.459025	0.111337	4871.627441
5994.279763	1.416251	0.111337	6317.620117
5994.280644	1.380644	0.111337	7533.967773
5994.281604	1.344650	0.111337	8824.831055
5994.282653	1.306073	0.111337	10194.901367
5994.283582	1.273425	0.111337	11377.913086
5994.284447	1.243839	0.111337	12453.833984
5994.285494	1.209397	0.111337	13720.072266
5994.286506	1.177020	0.111337	14911.216797
5994.287398	1.149364	0.111337	15936.449219
5994.288372	1.123868	0.111337	17031.097656
5994.289428	1.096491	0.111337	18188.992187
5994.290348	0.819569	0.111337	18942.996094
5994.291215	0.111046	0.111337	19039.273437
5994.292297	0.089989	0.111337	19136.640625
5994.293278	0.089963	0.111337	19224.894531
5994.294163	0.090000	0.111337	19304.544922
5994.295137	0.090099	0.111337	19392.300781
5994.296189	0.090000	0.111337	19486.980469
5994.297095	0.089923	0.111337	19568.451172
5994.297957	0.090004	0.111337	19646.035156
5994.299028	0.090044	0.111337	19742.472656
5994.300022	0.089982	0.111337	19831.914062
5995.206601	1.076459	0.159472	470.412445
5995.207482	1.521061	0.159472	1810.467041
5995.208486	1.504164	0.159472	3320.647461
5995.209544	1.459146	0.159472	4864.423340
5995.210436	1.421191	0.159472	6132.125977
5995.211343	1.383761	0.159472	7387.197266
5995.212446	1.342463	0.159472	8867.934570
5995.213396	1.308164	0.159472	10110.690430
5995.214268	1.277314	0.159472	11224.508789
5995.215312	1.242429	0.159472	12521.605469
5995.216336	1.208302	0.159472	13758.906250
5995.217236	1.179463	0.159472	14820.422852
5995.218187	1.150353	0.159472	15914.408203
5995.219249	1.122301	0.159472	17106.292969
5995.220177	1.097904	0.159472	18125.148437
5995.221043	0.894727	0.159472	18899.982422
5995.222121	0.107787	0.159472	19016.175781
5995.223118	0.089949	0.159472	19105.855469
5995.223993	0.089941	0.159472	19184.554687
5995.224984	0.089971	0.159472	19273.714844
5995.226019	0.090015	0.159472	19366.880859
5995.226919	0.090044	0.159472	19447.919922
5995.227776	0.089934	0.159472	19524.994141
5995.228850	0.089967	0.159472	19621.619141
5995.229860	0.089890	0.159472	19712.408203
5995.230731	0.090037	0.159472	19790.830078
5996.310481	1.078352	0.115007	471.239868
5996.311353	1.520947	0.115007	1797.505859
5996.312336	1.506416	0.115007	3278.312988
5996.313291	1.464770	0.115007	4677.168945
5996.314171	1.427465	0.115007	5933.337891
5996.315096	1.389324	0.115007	7218.462402
5996.316178	1.348876	0.115007	8677.946289
5996.317058	1.315712	0.115007	9835.772461
5996.317928	1.284921	0.115007	10953.653320
5996.318956	1.250076	0.115007	12238.731445
5996.319927	1.217904	0.115007	13421.316406
5996.320804	1.189244	0.115007	14464.283203
5996.321730	1.160248	0.115007	15538.672852
5996.322798	1.129874	0.115007	16745.378906
5996.323693	1.108411	0.115007	17737.406250
5996.324617	1.069102	0.115007	18725.255859
5996.325677	0.210681	0.115007	18948.578125
5996.326619	0.089832	0.115007	19033.199219
5996.327482	0.090040	0.115007	19110.904297
5996.328537	0.090048	0.115007	19205.904297
5996.329551	0.089919	0.115007	19297.082031
5996.330435	0.090004	0.115007	19376.644531
5996.331386	0.090048	0.115007	19462.279297
5996.332450	0.090007	0.115007	19558.046875
5996.333371	0.089978	0.115007	19640.916016
5996.334231	0.090000	0.115007	19718.316406
5997.239752	1.056020	0.159895	458.312897
5997.240618	1.520200	0.159895	1774.806274
5997.241639	1.504409	0.159895	3310.808105
5997.242678	1.460123	0.159895	4827.875977
5997.243568	1.422198	0.159895	6093.632812
5997.244460	1.385394	0.159895	7329.404297
5997.245564	1.343990	0.159895	8813.169922
5997.246512	1.309457	0.159895	10054.535156
5997.247378	1.278831	0.159895	11162.001953
5997.248422	1.243978	0.159895	12460.714844
5997.249456	1.209785	0.159895	13711.632812
5997.250342	1.181078	0.159895	14758.067383
5997.251291	1.151774	0.159895	15851.100586
5997.252346	1.123550	0.159895	17036.445312
5997.253262	1.099369	0.159895	18043.466797
5997.254175	0.937635	0.159895	18899.527344
5997.255057	0.142625	0.159895	19025.322266
5997.256073	0.089901	0.159895	19116.662109
5997.256976	0.089938	0.159895	19197.875000
5997.257853	0.089938	0.159895	19276.750000
5997.258776	0.090015	0.159895	19359.833984
5997.259762	0.089963	0.159895	19448.537109
5997.260680	0.090004	0.159895	19531.160156
5997.261543	0.089963	0.159895	19608.798828
5997.262586	0.089949	0.159895	19702.615234
5997.263474	0.089952	0.159895	19782.492187
5998.346699	1.065348	0.109907	464.491638
5998.347561	1.519263	0.109907	1774.095947
5998.348676	1.500930	0.109907	3447.633057
5998.349633	1.459200	0.109907	4844.087891
5998.350507	1.422634	0.109907	6087.470215
5998.351561	1.380033	0.109907	7542.024902
5998.352618	1.340028	0.109907	8958.434570
5998.353516	1.307084	0.109907	10132.195312
5998.354462	1.274308	0.109907	11337.690430
5998.355525	1.238412	0.109907	12654.122070
5998.356472	1.207240	0.109907	13797.377930
5998.357347	1.178672	0.109907	14828.715820
5998.358400	1.146445	0.109907	16035.922852
5998.359425	1.120345	0.109907	17184.277344
5998.360320	1.096699	0.109907	18165.822266
5998.361296	0.760792	0.109907	18908.355469
5998.362352	0.095563	0.109907	19009.269531
5998.363275	0.089901	0.109907	19092.248047
5998.364139	0.089949	0.109907	19169.962891
5998.365215	0.089949	0.109907	19266.748047
5998.366198	0.089956	0.109907	19355.175781
5998.367089	0.089974	0.109907	19435.343750
5998.368092	0.090007	0.109907	19525.621094
5998.369122	0.089960	0.109907	19618.279297
5998.370015	0.089989	0.109907	19698.638672
5998.370875	0.090015	0.109907	19776.050781
5999.275037	1.134251	0.160132	575.065002
5999.276053	1.525693	0.160132	2125.169434
5999.276937	1.500593	0.160132	3451.693848
5999.277934	1.458230	0.160132	4905.549316
5999.278994	1.413904	0.160132	6404.287109
5999.279896	1.377100	0.160132	7646.431152
5999.280757	1.342991	0.160132	8802.746094
5999.281853	1.304780	0.160132	10232.785156
5999.282845	1.270001	0.160132	11492.626953
5999.283723	1.240327	0.160132	12581.633789
5999.284721	1.207423	0.160132	13786.642578
5999.285790	1.173494	0.160132	15041.107422
5999.286680	1.145929	0.160132	16060.984375
5999.287570	1.121785	0.160132	17059.373047
5999.288676	1.093986	0.160132	18269.320312
5999.289634	0.701645	0.160132	18941.496094
5999.290505	0.098236	0.160132	19027.060547
5999.291535	0.089960	0.160132	19119.718750
5999.292567	0.089938	0.160132	19212.535156
5999.293459	0.090004	0.160132	19292.818359
5999.294389	0.089985	0.160132	19376.503906
5999.295459	0.090051	0.160132	19472.859375
5999.296399	0.090007	0.160132	19557.466797
5999.297259	0.090004	0.160132	19634.869141
5999.298320	0.090011	0.160132	19730.371094
5999.299318	0.089960	0.160132	19820.150391
6000.379842	1.067047	0.115736	459.897308
6000.380714	1.520526	0.115736	1785.796021
6000.381575	1.509009	0.115736	3085.052734
6000.382636	1.465342	0.115736	4639.780273
6000.383530	1.427692	0.115736	5916.136719
6000.384407	1.392063	0.115736	7136.976074
6000.385417	1.353735	0.115736	8504.249023
6000.386349	1.318495	0.115736	9733.085937
6000.387269	1.286356	0.115736	10916.533203
6000.388135	1.255902	0.115736	12004.144531
6000.389171	1.222416	0.115736	13270.567383
6000.390051	1.193009	0.115736	14320.415039
6000.390929	1.165466	0.115736	15343.694336
6000.391898	1.136810	0.115736	16445.263672
6000.392842	1.114464	0.115736	17497.318359
6000.393726	1.089408	0.115736	18460.355469
6000.394641	0.579448	0.115736	18990.550781
6000.395707	0.090725	0.115736	19087.263672
6000.396594	0.089949	0.115736	19167.048828
6000.397457	0.089985	0.115736	19244.707031
6000.398500	0.090000	0.115736	19338.576172
6000.399467	0.089956	0.115736	19425.564453
6000.400335	0.089982	0.115736	19503.667969
6000.401210	0.089996	0.115736	19582.414062
6000.402314	0.090018	0.115736	19681.794922
6000.403182	0.089875	0.115736	19759.806641
6000.404049	0.089934	0.115736	19837.779297
6001.311295	1.163518	0.157989	628.299744
6001.312341	1.525419	0.157989	2223.887695
6001.313228	1.497664	0.157989	3552.315430
6001.314161	1.457186	0.157989	4911.870117
6001.315236	1.413040	0.157989	6430.887695
6001.316168	1.375430	0.157989	7712.788086
6001.317037	1.342031	0.157989	8879.013672
6001.318078	1.304528	0.157989	10237.027344
6001.319100	1.268998	0.157989	11533.943359
6001.319991	1.239272	0.157989	12638.134766
6001.320950	1.207661	0.157989	13796.281250
6001.322007	1.173662	0.157989	15036.841797
6001.322943	1.144867	0.157989	16108.437500
6001.323815	1.122133	0.157989	17086.937500
6001.324901	1.093865	0.157989	18274.875000
6001.325901	0.654994	0.157989	18929.869141
6001.326790	0.095175	0.157989	19014.478516
6001.327772	0.089967	0.157989	19102.826172
6001.328825	0.090037	0.157989	19197.634766
6001.329728	0.089930	0.157989	19278.841797
6001.330589	0.089985	0.157989	19356.318359
6001.331693	0.090073	0.157989	19455.759766
6001.332657	0.089985	0.157989	19542.505859
6001.333516	0.089886	0.157989	19619.718750
6001.334605	0.090022	0.157989	19717.751953
6001.335644	0.089941	0.157989	19811.201172
6002.412053	1.124938	0.111184	566.968628
6002.412958	1.524521	0.111184	1946.660522
6002.413834	1.505944	0.111184	3265.867187
6002.414859	1.462101	0.111184	4764.520508
6002.415853	1.419946	0.111184	6175.947266
6002.416746	1.384281	0.111184	7412.110352
6002.417609	1.349334	0.111184	8576.584961
6002.418708	1.311310	0.111184	10017.714844
6002.419605	1.279189	0.111184	11165.147461
6002.420477	1.249764	0.111184	12254.942383
6002.421486	1.216432	0.111184	13482.322266
6002.422491	1.183125	0.111184	14671.363281
6002.423395	1.155421	0.111184	15715.864258
6002.424395	1.127519	0.111184	16843.382812
6002.425456	1.101401	0.111184	18011.968750
6002.426354	0.985298	0.111184	18896.765625
6002.427236	0.164147	0.111184	19041.542969
6002.428327	0.089985	0.111184	19139.716797
6002.429273	0.089883	0.111184	19224.746094
6002.430142	0.089989	0.111184	19302.947266
6002.431167	0.090000	0.111184	19395.197266
6002.432195	0.089963	0.111184	19487.679687
6002.433083	0.089938	0.111184	19567.544922
6002.433999	0.089985	0.111184	19649.970703
6002.435057	0.089989	0.111184	19745.179687
6002.436006	0.089930	0.111184	19830.523437
6003.350464	1.081366	0.153038	463.905975
6003.351593	1.524485	0.153038	2185.049316
6003.352552	1.496049	0.153038	3619.759766
6003.353424	1.457908	0.153038	4891.055176
6003.354464	1.414786	0.153038	6362.433105
6003.355494	1.373866	0.153038	7777.515137
6003.356387	1.339735	0.153038	8973.898437
6003.357342	1.305586	0.153038	10220.732422
6003.358411	1.268027	0.153038	11576.253906
6003.359353	1.236698	0.153038	12741.223633
6003.360220	1.207284	0.153038	13787.938477
6003.361279	1.174160	0.153038	15031.374023
6003.362284	1.143325	0.153038	16180.416016
6003.363175	1.120983	0.153038	17179.210937
6003.364055	1.097651	0.153038	18145.144531
6003.365057	0.777147	0.153038	18923.845703
6003.365992	0.102286	0.153038	19019.484375
6003.366914	0.089864	0.153038	19102.339844
6003.367774	0.089978	0.153038	19179.720703
6003.368791	0.089945	0.153038	19271.195312
6003.369686	0.089843	0.153038	19351.603516
6003.370561	0.089938	0.153038	19430.298828
6003.371485	0.089949	0.153038	19513.412109
6003.372473	0.089861	0.153038	19602.195312
6003.373376	0.089854	0.153038	19683.333984
6003.374264	0.089886	0.153038	19763.152344
6004.443075	1.057588	0.111522	452.647614
6004.444060	1.519607	0.111522	1949.460327
6004.445114	1.498689	0.111522	3529.078613
6004.446010	1.459237	0.111522	4836.554687
6004.446883	1.421451	0.111522	6077.481934
6004.447960	1.379220	0.111522	7562.901855
6004.448955	1.340962	0.111522	8897.159180
6004.449848	1.308970	0.111522	10066.069336
6004.450850	1.274132	0.111522	11342.750000
6004.451922	1.238690	0.111522	12670.625977
6004.452816	1.208287	0.111522	13750.834961
6004.453692	1.179038	0.111522	14783.671875
6004.454794	1.146163	0.111522	16046.744141
6004.455751	1.121810	0.111522	17120.316406
6004.456626	1.098776	0.111522	18081.744141
6004.457678	0.762942	0.111522	18884.359375
6004.458710	0.095973	0.111522	18983.404297
6004.459607	0.089886	0.111522	19064.033203
6004.460548	0.089989	0.111522	19148.712891
6004.461593	0.089923	0.111522	19242.681641
6004.462521	0.089949	0.111522	19326.154297
6004.463379	0.090004	0.111522	19403.376953
6004.464438	0.089982	0.111522	19498.667969
6004.465440	0.089908	0.111522	19588.755859
6004.466315	0.089883	0.111522	19667.402344
6004.467272	0.090044	0.111522	19753.574219
6005.388322	1.138744	0.150235	585.314331
6005.389222	1.524576	0.150235	1957.433105
6005.390102	1.504878	0.150235	3281.725586
6005.391093	1.462445	0.150235	4731.008789
6005.392113	1.419298	0.150235	6178.692871
6005.392999	1.383787	0.150235	7404.728027
6005.393969	1.347034	0.150235	8711.350586
6005.395033	1.308091	0.150235	10103.159180
6005.395948	1.275890	0.150235	11270.598633
6005.396819	1.245432	0.150235	12355.370117
6005.397928	1.209741	0.150235	13696.972656
6005.398915	1.178086	0.150235	14859.743164
6005.399786	1.151074	0.150235	15862.329102
6005.400913	1.121517	0.150235	17126.279297
6005.401945	1.094315	0.150235	18255.613281
6005.402841	0.777913	0.150235	18952.623047
6005.403783	0.105146	0.150235	19051.671875
6005.404844	0.089897	0.150235	19147.052734
6005.405779	0.089905	0.150235	19231.113281
6005.406642	0.089974	0.150235	19308.761719
6005.407682	0.089982	0.150235	19402.341797
6005.408696	0.089894	0.150235	19493.494141
6005.409574	0.089982	0.150235	19572.498047
6005.410548	0.090044	0.150235	19660.201172
6005.411580	0.089952	0.150235	19753.031250
6005.412501	0.089956	0.150235	19835.880859
6006.474786	1.143424	0.109029	588.863403
6006.475710	1.525192	0.109029	1998.140503
6006.476571	1.504164	0.109029	3293.225586
6006.477641	1.459010	0.109029	4854.366211
6006.478646	1.417192	0.109029	6278.644531
6006.479520	1.381626	0.109029	7486.185547
6006.480491	1.344826	0.109029	8792.010742
6006.481546	1.306274	0.109029	10170.129883
6006.482465	1.274187	0.109029	11341.107422
6006.483335	1.243795	0.109029	12423.208984
6006.484427	1.208621	0.109029	13743.022461
6006.485416	1.176119	0.109029	14906.205078
6006.486320	1.148851	0.109029	15944.766602
6006.487318	1.122905	0.109029	17065.425781
6006.488379	1.095652	0.109029	18227.912109
6006.489280	0.804803	0.109029	18953.039062
6006.490159	0.108666	0.109029	19048.556641
6006.491257	0.090037	0.109029	19147.416016
6006.492210	0.089934	0.109029	19233.123047
6006.493077	0.089949	0.109029	19311.109375
6006.494103	0.090073	0.109029	19403.525391
6006.495133	0.089945	0.109029	19496.167969
6006.496013	0.090004	0.109029	19575.371094
6006.496928	0.090033	0.109029	19657.751953
6006.497980	0.090007	0.109029	19752.439453
6006.498921	0.089967	0.109029	19837.097656
6007.424532	1.137037	0.145248	582.163147
6007.425487	1.525415	0.145248	2038.934570
6007.426359	1.503182	0.145248	3349.709473
6007.427417	1.457908	0.145248	4892.175781
6007.428441	1.415175	0.145248	6341.314453
6007.429337	1.378696	0.145248	7576.626465
6007.430287	1.343639	0.145248	8853.083008
6007.431338	1.304967	0.145248	10224.603516
6007.432273	1.272473	0.145248	11414.366211
6007.433146	1.242491	0.145248	12499.061523
6007.434208	1.207646	0.145248	13781.582031
6007.435222	1.175416	0.145248	14973.454102
6007.436105	1.148134	0.145248	15987.255859
6007.437104	1.122587	0.145248	17108.720703
6007.438146	1.094868	0.145248	18249.574219
6007.439062	0.777979	0.145248	18962.203125
6007.439918	0.105945	0.145248	19052.892578
6007.440988	0.090026	0.145248	19149.220703
6007.441977	0.089945	0.145248	19238.175781
6007.442854	0.090040	0.145248	19317.140625
6007.443826	0.090048	0.145248	19404.666016
6007.444880	0.089996	0.145248	19499.521484
6007.445776	0.089941	0.145248	19580.109375
6007.446640	0.089985	0.145248	19657.857422
6007.447722	0.090095	0.145248	19755.339844
6007.448696	0.089993	0.145248	19842.992187
