time (s)	coil I (A)	last det (V)	int current (uC)
5217.276374	0.574871	0.235714	246.619476
5217.277434	0.280521	0.235714	543.971985
5217.278323	0.287842	0.235714	799.863342
5217.279196	0.285601	0.235714	1049.192627
5217.280118	0.276317	0.235714	1303.957031
5217.281119	0.259812	0.235714	1564.028809
5217.282047	0.246526	0.235714	1792.804810
5217.282950	0.375154	0.235714	2131.568604
5217.283940	0.090769	0.235714	2221.429932
5217.284849	0.092183	0.235714	2305.223877
5217.285765	0.092809	0.235714	2390.236816
5217.286630	0.092032	0.235714	2469.844971
5217.287682	0.091996	0.235714	2566.624512
5217.288582	0.091824	0.235714	2649.265869
5217.289453	0.091897	0.235714	2729.308105
5217.290463	0.091058	0.235714	2821.277100
5217.291396	0.091948	0.235714	2907.064697
5217.292320	0.091274	0.235714	2991.402344
5218.288565	0.646161	0.226469	271.387573
5218.289426	0.278394	0.226469	511.084412
5218.290572	0.288263	0.226469	841.433716
5218.291481	0.285795	0.226469	1101.221069
5218.292351	0.276947	0.226469	1342.165039
5218.293447	0.258197	0.226469	1625.148926
5218.294414	0.246185	0.226469	1863.210083
5218.295302	0.333900	0.226469	2159.713379
5218.296206	0.090864	0.226469	2241.854736
5218.297299	0.091952	0.226469	2342.358154
5218.298176	0.091956	0.226469	2423.003174
5218.299035	0.091692	0.226469	2501.766602
5218.300083	0.091044	0.226469	2597.180420
5218.301051	0.091538	0.226469	2685.789307
5218.301920	0.091582	0.226469	2765.374023
5218.302779	0.091011	0.226469	2843.552246
5218.303886	0.091157	0.226469	2944.463379
5218.304778	0.091633	0.226469	3026.200195
5219.311039	0.640807	0.243843	275.546936
5219.311904	0.278123	0.243843	516.122925
5219.312951	0.288054	0.243843	817.715698
5219.313981	0.285681	0.243843	1111.967285
5219.314868	0.276306	0.243843	1357.050781
5219.315823	0.260182	0.243843	1605.524414
5219.316880	0.246237	0.243843	1865.796387
5219.317814	0.359758	0.243843	2201.810547
5219.318677	0.091476	0.243843	2280.754150
5219.319730	0.091663	0.243843	2377.274902
5219.320745	0.091882	0.243843	2470.535400
5219.321621	0.092856	0.243843	2551.877686
5219.322586	0.091630	0.243843	2640.300293
5219.323653	0.091472	0.243843	2737.901123
5219.324559	0.091282	0.243843	2820.602295
5219.325425	0.091417	0.243843	2899.769531
5219.326490	0.090670	0.243843	2996.333252
5219.327493	0.092036	0.243843	3088.645508
5220.325306	0.634296	0.231194	270.209930
5220.326401	0.281561	0.231194	578.519531
5220.327396	0.288743	0.231194	865.818481
5220.328275	0.285685	0.231194	1116.935425
5220.329267	0.274622	0.231194	1389.359985
5220.330348	0.255714	0.231194	1665.786987
5220.331235	0.245925	0.231194	1883.922729
5220.332107	0.356993	0.231194	2195.220947
5220.333214	0.091014	0.231194	2295.973877
5220.334190	0.092450	0.231194	2386.205078
5220.335065	0.092856	0.231194	2467.454590
5220.336109	0.091432	0.231194	2562.909424
5220.337151	0.091842	0.231194	2658.608887
5220.338043	0.092897	0.231194	2741.472656
5220.338978	0.091201	0.231194	2826.745850
5220.340039	0.090872	0.231194	2923.160645
5220.340987	0.091820	0.231194	3010.206055
5220.341853	0.091472	0.231194	3089.420898
5221.347773	0.619512	0.240387	265.770538
5221.348640	0.278881	0.240387	507.560059
5221.349737	0.288457	0.240387	823.997437
5221.350713	0.285780	0.240387	1102.918701
5221.351598	0.276581	0.240387	1347.692749
5221.352616	0.259058	0.240387	1611.413330
5221.353681	0.246185	0.240387	1873.600708
5221.354585	0.346509	0.240387	2186.844727
5221.355508	0.091091	0.240387	2270.922119
5221.356555	0.091652	0.240387	2366.881348
5221.357512	0.092256	0.240387	2455.170166
5221.358380	0.092087	0.240387	2535.102051
5221.359439	0.091340	0.240387	2631.831543
5221.360461	0.091586	0.240387	2725.432129
5221.361342	0.092281	0.240387	2806.732178
5221.362302	0.091311	0.240387	2894.390869
5221.363352	0.090846	0.240387	2989.779053
5221.364275	0.091926	0.240387	3074.626953
5222.363207	0.637588	0.228080	359.599579
5222.364149	0.281796	0.228080	625.051086
5222.365077	0.288673	0.228080	892.939697
5222.365941	0.286267	0.228080	1140.274414
5222.366999	0.275416	0.228080	1431.664795
5222.367880	0.259735	0.228080	1660.491455
5222.368760	0.247167	0.228080	1877.998169
5222.369727	0.306101	0.228080	2173.997803
5222.370696	0.091289	0.228080	2262.457031
5222.371610	0.091897	0.228080	2346.450928
5222.372489	0.092227	0.228080	2427.518066
5222.373526	0.091813	0.228080	2522.727783
5222.374424	0.092073	0.228080	2605.409180
5222.375296	0.092010	0.228080	2685.642334
5222.376152	0.091498	0.228080	2763.964355
5222.377224	0.091395	0.228080	2861.940186
5222.378105	0.091421	0.228080	2942.481934
5222.378969	0.091469	0.228080	3021.510742
5223.383544	0.578317	0.242522	280.483582
5223.384429	0.279437	0.242522	527.785522
5223.385299	0.287893	0.242522	778.252502
5223.386372	0.285985	0.242522	1085.114502
5223.387324	0.276068	0.242522	1347.931396
5223.388207	0.261178	0.242522	1578.551514
5223.389134	0.247460	0.242522	1807.946655
5223.390199	0.369060	0.242522	2200.995605
5223.391081	0.091747	0.242522	2281.916260
5223.391942	0.092399	0.242522	2361.471436
5223.392992	0.091597	0.242522	2457.647949
5223.393940	0.092611	0.242522	2545.443359
5223.394807	0.092538	0.242522	2625.673584
5223.395718	0.091868	0.242522	2709.364990
5223.396787	0.091388	0.242522	2807.058594
5223.397681	0.092380	0.242522	2889.646729
5223.398544	0.092545	0.242522	2969.513184
5223.399547	0.090802	0.242522	3060.587646
5224.400340	0.548829	0.230078	244.777878
5224.401221	0.279507	0.230078	491.023376
5224.402225	0.288776	0.230078	780.954102
5224.403285	0.286439	0.230078	1084.579590
5224.404184	0.276566	0.230078	1333.212524
5224.405050	0.260731	0.230078	1559.005737
5224.406184	0.246731	0.230078	1838.798584
5224.407159	0.318596	0.230078	2149.429932
5224.408022	0.091626	0.230078	2228.503174
5224.409099	0.091739	0.230078	2327.306641
5224.410124	0.092421	0.230078	2422.037842
5224.411016	0.092919	0.230078	2504.921387
5224.411961	0.091373	0.230078	2591.269043
5224.413015	0.091150	0.230078	2687.341064
5224.413953	0.092153	0.230078	2773.780762
5224.414819	0.091886	0.230078	2853.354004
5224.415882	0.090923	0.230078	2950.004883
5224.416893	0.091304	0.230078	3042.312988
5225.420260	0.508293	0.238707	237.373047
5225.421150	0.280005	0.238707	486.577393
5225.422160	0.288966	0.238707	778.433105
5225.423229	0.286252	0.238707	1084.437012
5225.424121	0.276024	0.238707	1330.650635
5225.425026	0.259695	0.238707	1565.674438
5225.426142	0.246617	0.238707	1840.899536
5225.427095	0.339445	0.238707	2164.390137
5225.427963	0.091648	0.238707	2243.940430
5225.428994	0.091739	0.238707	2338.523926
5225.430028	0.092205	0.238707	2433.863525
5225.430916	0.092955	0.238707	2516.407959
5225.431863	0.091483	0.238707	2603.042480
5225.432911	0.091600	0.238707	2699.039551
5225.433855	0.091974	0.238707	2785.862793
5225.434715	0.091750	0.238707	2864.768311
5225.435775	0.091000	0.238707	2961.228027
5225.436781	0.091205	0.238707	3052.979980
5226.437066	0.631450	0.229672	274.680817
5226.437930	0.279020	0.229672	515.753906
5226.438978	0.289065	0.229672	818.693970
5226.440010	0.286395	0.229672	1114.253906
5226.440906	0.276779	0.229672	1362.247437
5226.441877	0.260087	0.229672	1614.791626
5226.442949	0.246573	0.229672	1879.118408
5226.443880	0.366647	0.229672	2220.466553
5226.444741	0.091886	0.229672	2299.580322
5226.445831	0.091630	0.229672	2399.456543
5226.446813	0.092952	0.229672	2490.735107
5226.447707	0.093259	0.229672	2574.108887
5226.448698	0.091333	0.229672	2664.619873
5226.449760	0.091611	0.229672	2761.911133
5226.450657	0.092069	0.229672	2844.497070
5226.451521	0.091256	0.229672	2923.342285
5226.452624	0.090850	0.229672	3023.549316
5226.453580	0.091915	0.229672	3111.420410
5227.457484	0.631751	0.235525	279.233734
5227.458361	0.278851	0.235525	523.786316
5227.459336	0.288245	0.235525	804.824829
5227.460293	0.286739	0.235525	1079.234497
5227.461220	0.277632	0.235525	1336.599121
5227.462084	0.263368	0.235525	1564.149048
5227.463134	0.247478	0.235525	1824.000977
5227.464017	0.358077	0.235525	2140.183350
5227.464886	0.091362	0.235525	2219.577148
5227.465823	0.091824	0.235525	2305.615967
5227.466817	0.091956	0.235525	2397.019775
5227.467730	0.091754	0.235525	2480.791260
5227.468605	0.091857	0.235525	2561.165771
5227.469634	0.091216	0.235525	2655.026855
5227.470544	0.091534	0.235525	2738.323242
5227.471422	0.091758	0.235525	2818.886719
5227.472278	0.091249	0.235525	2896.995605
5227.473345	0.091355	0.235525	2994.471436
5228.473804	0.630476	0.225289	275.518066
5228.474670	0.278716	0.225289	516.885986
5228.475701	0.288512	0.225289	814.341797
5228.476676	0.286289	0.225289	1093.473633
5228.477580	0.276823	0.225289	1343.721191
5228.478462	0.261200	0.225289	1574.099609
5228.479571	0.246951	0.225289	1847.967896
5228.480484	0.318420	0.225289	2138.685791
5228.481350	0.091494	0.225289	2217.919678
5228.482387	0.091443	0.225289	2312.745850
5228.483367	0.092318	0.225289	2403.217529
5228.484233	0.092285	0.225289	2483.136475
5228.485314	0.091121	0.225289	2581.637939
5228.486349	0.091190	0.225289	2676.019775
5228.487239	0.091505	0.225289	2757.459229
5228.488167	0.091047	0.225289	2841.951172
5228.489232	0.090923	0.225289	2938.783936
5228.490177	0.091198	0.225289	3024.965576
5229.493698	0.644857	0.240403	276.643738
5229.494561	0.279437	0.240403	517.798096
5229.495681	0.289065	0.240403	841.550842
5229.496638	0.286641	0.240403	1115.865967
5229.497505	0.277310	0.240403	1356.293335
5229.498555	0.259362	0.240403	1628.623047
5229.499586	0.246735	0.240403	1883.006470
5229.500472	0.337258	0.240403	2181.817383
5229.501408	0.091608	0.240403	2267.562256
5229.502483	0.092029	0.240403	2366.493164
5229.503414	0.092563	0.240403	2452.669678
5229.504287	0.092494	0.240403	2533.416748
5229.505320	0.091318	0.240403	2627.748535
5229.506350	0.091699	0.240403	2722.198730
5229.507240	0.092845	0.240403	2804.831299
5229.508204	0.091176	0.240403	2892.724609
5229.509263	0.090751	0.240403	2988.829590
5229.510188	0.092307	0.240403	3074.213623
5230.509560	0.540531	0.231879	257.292755
5230.510445	0.280063	0.231879	505.148926
5230.511411	0.289039	0.231879	784.360901
5230.512466	0.286556	0.231879	1086.677856
5230.513392	0.276270	0.231879	1342.503418
5230.514255	0.260962	0.231879	1567.713623
5230.515329	0.247097	0.231879	1833.095947
5230.516350	0.273373	0.231879	2112.209473
5230.517223	0.091663	0.231879	2192.230957
5230.518205	0.091725	0.231879	2282.304687
5230.519273	0.091912	0.231879	2380.466309
5230.520160	0.092205	0.231879	2462.251709
5230.521029	0.091692	0.231879	2541.931885
5230.522119	0.091029	0.231879	2641.153564
5230.523102	0.091736	0.231879	2731.329834
5230.523992	0.092175	0.231879	2813.365723
5230.524968	0.091055	0.231879	2902.235107
5230.526025	0.091099	0.231879	2998.526367
5231.530452	0.590402	0.242381	259.186310
5231.531324	0.279470	0.242381	502.884338
5231.532317	0.288798	0.242381	789.660400
5231.533265	0.287153	0.242381	1061.881714
5231.534196	0.277910	0.242381	1320.616089
5231.535061	0.263218	0.242381	1548.299438
5231.536117	0.247727	0.242381	1809.899170
5231.537006	0.338815	0.242381	2111.105469
5231.537884	0.091458	0.242381	2191.405273
5231.538853	0.091699	0.242381	2280.261719
5231.539802	0.092651	0.242381	2368.187988
5231.540725	0.092336	0.242381	2453.414551
5231.541599	0.092054	0.242381	2533.870117
5231.542639	0.091553	0.242381	2629.084961
5231.543531	0.091659	0.242381	2710.844727
5231.544405	0.091864	0.242381	2791.133789
5231.545291	0.091198	0.242381	2871.934814
5231.546328	0.091161	0.242381	2966.468750
5232.547265	0.630447	0.229494	268.570343
5232.548207	0.279386	0.229494	531.751953
5232.549249	0.288772	0.229494	832.652344
5232.550131	0.286586	0.229494	1085.420898
5232.550996	0.277852	0.229494	1325.762451
5232.552044	0.260255	0.229494	1598.509766
5232.553004	0.246958	0.229494	1835.589478
5232.553870	0.383298	0.229494	2167.525879
5232.554921	0.090762	0.229494	2262.916504
5232.555966	0.092300	0.229494	2359.369873
5232.556837	0.092201	0.229494	2439.676758
5232.557775	0.092113	0.229494	2526.078857
5232.558843	0.091337	0.229494	2623.626465
5232.559778	0.091963	0.229494	2709.611816
5232.560643	0.092051	0.229494	2789.235840
5232.561679	0.090981	0.229494	2883.492676
5232.562696	0.091230	0.229494	2976.274170
5232.563588	0.091659	0.229494	3058.033936
5233.567782	0.648856	0.245728	346.489227
5233.568847	0.283367	0.245728	648.274780
5233.569766	0.289292	0.245728	914.134094
5233.570627	0.286267	0.245728	1160.610107
5233.571684	0.274288	0.245728	1450.532837
5233.572701	0.255820	0.245728	1710.702148
5233.573597	0.246504	0.245728	1931.569580
5233.574586	0.256809	0.245728	2185.553711
5233.575639	0.091238	0.245728	2281.627197
5233.576547	0.092567	0.245728	2365.678223
5233.577410	0.091754	0.245728	2444.862061
5233.578514	0.091425	0.245728	2545.794678
5233.579487	0.091835	0.245728	2635.149902
5233.580364	0.091465	0.245728	2715.364502
5233.581364	0.090992	0.245728	2806.356934
5233.582419	0.091216	0.245728	2902.589600
5233.583306	0.091578	0.245728	2983.819580
5233.584170	0.091000	0.245728	3062.443359
5234.582976	0.648644	0.230836	278.916840
5234.583842	0.279152	0.230836	520.662109
5234.584918	0.288962	0.230836	831.585632
5234.585925	0.286370	0.230836	1119.959839
5234.586808	0.276940	0.230836	1364.497559
5234.587818	0.259607	0.230836	1626.700562
5234.588873	0.246735	0.230836	1887.005615
5234.589781	0.342155	0.230836	2197.681885
5234.590639	0.091304	0.230836	2276.020508
5234.591744	0.091842	0.230836	2377.505859
5234.592733	0.092205	0.230836	2468.696289
5234.593612	0.092333	0.230836	2549.856689
5234.594617	0.091260	0.230836	2641.572754
5234.595657	0.091860	0.230836	2737.107422
5234.596526	0.092446	0.230836	2817.443359
5234.597416	0.091553	0.230836	2898.925293
5234.598499	0.090916	0.230836	2997.386719
5234.599461	0.091721	0.230836	3085.622559
5235.604560	0.472672	0.244443	268.950439
5235.605610	0.283989	0.244443	567.139160
5235.606496	0.289709	0.244443	823.821777
5235.607416	0.286450	0.244443	1087.355957
5235.608486	0.273915	0.244443	1380.444824
5235.609448	0.256399	0.244443	1627.100586
5235.610314	0.246636	0.244443	1840.687134
5235.611378	0.298228	0.244443	2158.001221
5235.612402	0.091626	0.244443	2251.826172
5235.613274	0.092831	0.244443	2332.774658
5235.614236	0.091761	0.244443	2421.049316
5235.615288	0.091718	0.244443	2517.536133
5235.616221	0.092325	0.244443	2603.675781
5235.617088	0.092109	0.244443	2683.534668
5235.618169	0.091077	0.244443	2781.988525
5235.619170	0.092413	0.244443	2874.494385
5235.620067	0.091915	0.244443	2956.942383
5235.621033	0.091025	0.244443	3044.872803
5236.618767	0.582422	0.234207	295.287872
5236.619642	0.280858	0.234207	541.038757
5236.620513	0.289178	0.234207	792.913208
5236.621634	0.286890	0.234207	1114.516479
5236.622601	0.276134	0.234207	1381.538086
5236.623468	0.260632	0.234207	1607.506348
5236.624521	0.247123	0.234207	1867.726685
5236.625552	0.290717	0.234207	2167.455566
5236.626441	0.091417	0.234207	2248.725586
5236.627379	0.091956	0.234207	2334.979980
5236.628437	0.091505	0.234207	2431.792480
5236.629370	0.092509	0.234207	2518.103027
5236.630229	0.092545	0.234207	2597.599365
5236.631277	0.091150	0.234207	2693.124512
5236.632301	0.091549	0.234207	2786.870850
5236.633181	0.091908	0.234207	2867.749756
5236.634141	0.090967	0.234207	2955.077881
5236.635213	0.090864	0.234207	3052.484375
5237.642220	0.563972	0.246800	265.630890
5237.643096	0.279576	0.246800	510.539856
5237.644081	0.288472	0.246800	794.684448
5237.645132	0.285967	0.246800	1095.235596
5237.646055	0.275728	0.246800	1349.732178
5237.646919	0.260460	0.246800	1574.769775
5237.647997	0.246771	0.246800	1840.789185
5237.649007	0.292775	0.246800	2136.491699
5237.649877	0.091846	0.246800	2216.397461
5237.650857	0.091450	0.246800	2306.018555
5237.651903	0.091824	0.246800	2402.066162
5237.652801	0.092274	0.246800	2484.928467
5237.653669	0.091637	0.246800	2564.469238
5237.654789	0.091066	0.246800	2666.462891
5237.655775	0.092197	0.246800	2757.369385
5237.656644	0.092007	0.246800	2837.323242
5237.657716	0.090842	0.246800	2934.706055
5237.658771	0.090883	0.246800	3030.587158
5238.654488	1.211082	0.235831	611.596130
5238.655492	2.274002	0.235831	2894.693848
5238.656391	2.331134	0.235831	4990.383301
5238.657384	1.680927	0.235831	6659.543457
5238.658439	0.821799	0.235831	7526.541992
5238.659359	0.746473	0.235831	8213.297852
5238.660229	0.724614	0.235831	8843.711914
5238.661340	0.369448	0.235831	9254.168945
5238.662298	0.092421	0.235831	9342.708008
5238.663182	0.093102	0.235831	9425.009766
5238.664175	0.091655	0.235831	9516.023437
5238.665235	0.092417	0.235831	9613.985352
5238.666123	0.092205	0.235831	9695.863281
5238.666982	0.091593	0.235831	9774.541992
5238.668087	0.090923	0.235831	9875.011719
5238.669044	0.092080	0.235831	9963.132812
5238.669912	0.091534	0.235831	10042.584961
5238.670968	0.090824	0.235831	10138.495117
5239.679934	0.644462	0.242014	277.118530
5239.680804	0.278881	0.242014	519.744690
5239.681857	0.288864	0.242014	823.917969
5239.682753	0.287336	0.242014	1081.371460
5239.683632	0.278840	0.242014	1326.472168
5239.684546	0.263522	0.242014	1567.331055
5239.685569	0.247650	0.242014	1820.677124
5239.686486	0.372253	0.242014	2162.033447
5239.687349	0.091436	0.242014	2240.942383
5239.688421	0.091901	0.242014	2339.459961
5239.689333	0.092120	0.242014	2423.473633
5239.690260	0.092435	0.242014	2509.161133
5239.691124	0.091498	0.242014	2588.215332
5239.692159	0.091729	0.242014	2683.154297
5239.693057	0.091849	0.242014	2765.635010
5239.693934	0.092256	0.242014	2846.543457
5239.694944	0.091176	0.242014	2938.630859
5239.695869	0.091337	0.242014	3023.117187
5240.690690	0.623643	0.237994	308.079437
5240.691753	0.283165	0.237994	609.084106
5240.692645	0.289559	0.237994	867.371033
5240.693508	0.287186	0.237994	1115.212769
5240.694575	0.275391	0.237994	1409.054565
5240.695535	0.257999	0.237994	1656.733887
5240.696411	0.246987	0.237994	1873.094727
5240.697313	0.284678	0.237994	2129.874023
5240.698403	0.091476	0.237994	2229.582764
5240.699278	0.092952	0.237994	2310.915527
5240.700136	0.092933	0.237994	2390.652344
5240.701156	0.091359	0.237994	2483.838135
5240.702129	0.092194	0.237994	2573.542480
5240.703006	0.092032	0.237994	2654.254883
5240.703869	0.091340	0.237994	2733.081543
5240.704985	0.091443	0.237994	2835.131836
5240.705886	0.091399	0.237994	2917.482178
5240.706751	0.091802	0.237994	2996.890625
5241.717761	0.607163	0.242047	301.152893
5241.718713	0.281539	0.242047	569.178345
5241.719577	0.289160	0.242047	819.012695
5241.720664	0.286351	0.242047	1130.276611
5241.721712	0.274387	0.242047	1417.834473
5241.722606	0.257805	0.242047	1648.312256
5241.723558	0.246962	0.242047	1883.419800
5241.724614	0.287596	0.242047	2187.121582
5241.725547	0.092223	0.242047	2273.165527
5241.726407	0.092062	0.242047	2352.338623
5241.727464	0.091688	0.242047	2449.253174
5241.728472	0.091685	0.242047	2541.671143
5241.729352	0.092142	0.242047	2622.756348
5241.730319	0.091447	0.242047	2711.185059
5241.731366	0.091183	0.242047	2806.653564
5241.732281	0.091970	0.242047	2890.806396
5241.733138	0.091501	0.242047	2969.223145
5241.734192	0.090787	0.242047	3064.913086
5242.726978	0.650306	0.230433	364.171600
5242.728027	0.283253	0.230433	661.304199
5242.728939	0.288951	0.230433	924.827881
5242.729800	0.285751	0.230433	1170.859253
5242.730895	0.273362	0.230433	1470.190430
5242.731894	0.254883	0.230433	1724.818359
5242.732773	0.246207	0.230433	1941.234619
5242.733773	0.297532	0.230433	2238.766357
5242.734837	0.091212	0.230433	2335.816162
5242.735716	0.092688	0.230433	2417.288818
5242.736577	0.092040	0.230433	2496.535156
5242.737681	0.091421	0.230433	2597.463867
5242.738645	0.091989	0.230433	2686.140869
5242.739513	0.092732	0.230433	2766.632080
5242.740531	0.091110	0.230433	2859.381592
5242.741566	0.091392	0.230433	2953.971924
5242.742452	0.092344	0.230433	3035.788574
5242.743366	0.090919	0.230433	3118.888672
5243.754500	0.593152	0.246119	295.982758
5243.755414	0.281001	0.246119	552.817627
5243.756285	0.288973	0.246119	804.513428
5243.757373	0.286461	0.246119	1116.183228
5243.758378	0.275032	0.246119	1392.590088
5243.759280	0.258929	0.246119	1626.144409
5243.760275	0.247053	0.246119	1871.962402
5243.761352	0.287487	0.246119	2181.585449
5243.762248	0.091490	0.246119	2263.561035
5243.763109	0.092047	0.246119	2342.813721
5243.764220	0.091553	0.246119	2444.528809
5243.765192	0.091959	0.246119	2533.913086
5243.766053	0.092007	0.246119	2613.130859
5243.767161	0.091069	0.246119	2714.035645
5243.768179	0.091750	0.246119	2807.437744
5243.769063	0.091626	0.246119	2888.435059
5243.769991	0.091205	0.246119	2973.073242
5243.771042	0.090806	0.246119	3068.510010
5244.762048	0.603087	0.245048	259.930573
5244.762914	0.279683	0.245048	502.135712
5244.764014	0.289398	0.245048	820.473755
5244.765010	0.286377	0.245048	1105.705200
5244.765908	0.276178	0.245048	1353.713013
5244.766902	0.258281	0.245048	1610.444580
5244.767967	0.246566	0.245048	1873.037598
5244.768868	0.338207	0.245048	2177.761963
5244.769757	0.091421	0.245048	2259.035156
5244.770844	0.091549	0.245048	2358.549072
5244.771798	0.092607	0.245048	2446.896484
5244.772663	0.092516	0.245048	2526.922607
5244.773703	0.091337	0.245048	2621.912842
5244.774739	0.091904	0.245048	2717.125732
5244.775615	0.091868	0.245048	2797.601807
5244.776561	0.090970	0.245048	2883.659912
5244.777618	0.090963	0.245048	2979.807861
5244.778551	0.091227	0.245048	3064.922363
5245.793216	0.644579	0.241334	273.301453
5245.794180	0.280122	0.241334	543.339111
5245.795131	0.289175	0.241334	818.344360
5245.796043	0.287285	0.241334	1080.348389
5245.796925	0.278529	0.241334	1326.010986
5245.797968	0.261255	0.241334	1598.499756
5245.798876	0.247383	0.241334	1823.123291
5245.799755	0.368968	0.241334	2147.446533
5245.800682	0.090919	0.241334	2231.728516
5245.801686	0.092380	0.241334	2324.478516
5245.802612	0.092249	0.241334	2409.900635
5245.803474	0.092285	0.241334	2489.450439
5245.804529	0.091516	0.241334	2586.000000
5245.805411	0.091996	0.241334	2667.140381
5245.806274	0.091769	0.241334	2746.336914
5245.807160	0.091344	0.241334	2827.267578
5245.808194	0.091534	0.241334	2921.914062
5245.809086	0.092113	0.241334	3004.078857
5246.798304	0.604600	0.244858	269.651428
5246.799179	0.279679	0.244858	514.370483
5246.800043	0.289006	0.244858	764.071960
5246.801107	0.287805	0.244858	1070.296631
5246.801980	0.278925	0.244858	1313.797729
5246.802858	0.264412	0.244858	1545.951172
5246.803745	0.249144	0.244858	1766.942139
5246.804797	0.359139	0.244858	2144.756836
5246.805695	0.091758	0.244858	2227.155273
5246.806554	0.091882	0.244858	2306.082275
5246.807670	0.092018	0.244858	2408.774170
5246.808581	0.092124	0.244858	2492.699219
5246.809456	0.092032	0.244858	2573.227539
5246.810462	0.091293	0.244858	2665.068115
5246.811453	0.091707	0.244858	2755.949219
5246.812342	0.091685	0.244858	2837.456787
5246.813199	0.092014	0.244858	2916.312988
5246.814295	0.091110	0.244858	3016.169189
5247.830070	0.512054	0.241450	274.461182
5247.831120	0.283176	0.241450	571.796265
5247.832000	0.289043	0.241450	826.154053
5247.832947	0.285857	0.241450	1096.860596
5247.834051	0.272985	0.241450	1398.235596
5247.834968	0.255612	0.241450	1632.631348
5247.835837	0.246401	0.241450	1846.754150
5247.836892	0.300417	0.241450	2163.694580
5247.837904	0.091425	0.241450	2256.216309
5247.838792	0.093424	0.241450	2339.176758
5247.839754	0.091670	0.241450	2427.363281
5247.840812	0.091758	0.241450	2524.443115
5247.841733	0.092135	0.241450	2609.299561
5247.842599	0.091600	0.241450	2688.625488
5247.843692	0.091058	0.241450	2788.152344
5247.844689	0.091739	0.241450	2879.616699
5247.845585	0.092073	0.241450	2962.113770
5247.846566	0.091051	0.241450	3051.434814
5248.834081	0.538502	0.241797	276.790100
5248.834984	0.280858	0.241797	530.404968
5248.835849	0.288710	0.241797	780.138916
5248.836961	0.286113	0.241797	1098.296875
5248.837959	0.274794	0.241797	1372.541016
5248.838840	0.259094	0.241797	1600.802979
5248.839852	0.246760	0.241797	1850.524414
5248.840917	0.276365	0.241797	2144.852783
5248.841800	0.092296	0.241797	2226.350342
5248.842681	0.092010	0.241797	2307.411621
5248.843794	0.091674	0.241797	2409.444336
5248.844745	0.092736	0.241797	2497.635986
5248.845603	0.092307	0.241797	2576.835449
5248.846630	0.091187	0.241797	2670.483887
5248.847677	0.091685	0.241797	2766.477539
5248.848569	0.092465	0.241797	2848.956055
5248.849502	0.091194	0.241797	2934.040039
5248.850572	0.090725	0.241797	3031.115967
5249.867747	1.118844	0.243316	519.143616
5249.868621	2.146238	0.243316	2394.955566
5249.869637	2.319434	0.243316	4751.500000
5249.870681	1.653347	0.243316	6477.594238
5249.871591	0.845786	0.243316	7247.259766
5249.872451	0.753109	0.243316	7894.933594
5249.873556	0.726083	0.243316	8697.254883
5249.874522	0.428291	0.243316	9110.984375
5249.875397	0.091003	0.243316	9190.612305
5249.876400	0.091615	0.243316	9282.501953
5249.877460	0.092076	0.243316	9380.102539
5249.878353	0.092260	0.243316	9462.490234
5249.879237	0.091842	0.243316	9543.678711
5249.880345	0.091139	0.243316	9644.660156
5249.881293	0.092010	0.243316	9731.885742
5249.882166	0.092098	0.243316	9812.288086
5249.883211	0.090802	0.243316	9907.175781
5249.884234	0.090828	0.243316	10000.092773
5250.870302	0.538700	0.242840	277.969147
5250.871242	0.281774	0.242840	542.836426
5250.872104	0.289215	0.242840	792.139832
5250.873136	0.286666	0.242840	1087.979492
5250.874164	0.275332	0.242840	1371.020752
5250.875055	0.259537	0.242840	1602.268555
5250.876018	0.247266	0.242840	1840.385376
5250.877074	0.309683	0.242840	2167.410156
5250.878005	0.091729	0.242840	2252.809326
5250.878869	0.093083	0.242840	2333.233398
5250.879939	0.091732	0.242840	2431.386719
5250.880943	0.092153	0.242840	2523.908691
5250.881831	0.092637	0.242840	2606.170166
5250.882748	0.092527	0.242840	2691.017334
5250.883614	0.091970	0.242840	2770.663574
5250.884619	0.092029	0.242840	2863.152588
5250.885541	0.092208	0.242840	2948.168701
5250.886418	0.091633	0.242840	3028.531006
5251.905973	0.645582	0.239896	271.144562
5251.907068	0.282601	0.239896	580.593018
5251.907986	0.289574	0.239896	846.421875
5251.908857	0.287080	0.239896	1096.468628
5251.909953	0.275332	0.239896	1398.232544
5251.910945	0.257073	0.239896	1653.248657
5251.911840	0.246782	0.239896	1874.118774
5251.912834	0.315154	0.239896	2187.381592
5251.913883	0.091710	0.239896	2283.585693
5251.914781	0.093318	0.239896	2367.385254
5251.915652	0.092135	0.239896	2447.634766
5251.916752	0.091545	0.239896	2548.334717
5251.917717	0.092391	0.239896	2637.492432
5251.918579	0.092227	0.239896	2716.991699
5251.919608	0.091011	0.239896	2810.641846
5251.920638	0.091791	0.239896	2905.186279
5251.921514	0.091959	0.239896	2985.742676
5251.922409	0.091058	0.239896	3067.239990
5252.905396	0.644989	0.253092	270.250397
5252.906471	0.282180	0.253092	573.594055
5252.907474	0.289427	0.253092	863.889832
5252.908366	0.286293	0.253092	1119.262939
5252.909345	0.275251	0.253092	1388.734131
5252.910404	0.256560	0.253092	1660.431274
5252.911314	0.246760	0.253092	1884.983154
5252.912184	0.331058	0.253092	2173.003906
5252.913290	0.090927	0.253092	2273.568604
5252.914256	0.092399	0.253092	2362.825684
5252.915115	0.092501	0.253092	2442.284180
5252.916204	0.091487	0.253092	2541.913330
5252.917240	0.091230	0.253092	2636.427979
5252.918117	0.092062	0.253092	2717.166260
5252.919039	0.091198	0.253092	2801.250488
5252.920113	0.090765	0.253092	2898.732422
5252.921057	0.091388	0.253092	2985.002686
5252.921915	0.091597	0.253092	3063.592529
5253.942808	0.566620	0.241354	285.576416
5253.943867	0.283268	0.241354	585.557007
5253.944744	0.289482	0.241354	839.433105
5253.945705	0.286359	0.241354	1114.623779
5253.946764	0.273820	0.241354	1404.598633
5253.947697	0.256593	0.241354	1643.999878
5253.948572	0.246537	0.241354	1859.719604
5253.949643	0.286487	0.241354	2166.546875
5253.950652	0.091545	0.241354	2258.916260
5253.951548	0.092413	0.241354	2341.718506
5253.952512	0.091666	0.241354	2430.084717
5253.953569	0.091677	0.241354	2526.987549
5253.954480	0.092058	0.241354	2610.852539
5253.955344	0.091934	0.241354	2690.283203
5253.956423	0.090941	0.241354	2788.408691
5253.957410	0.091124	0.241354	2878.348389
5253.958300	0.091479	0.241354	2959.765137
5253.959320	0.090637	0.241354	3052.215088
5254.941633	0.630612	0.250913	271.162964
5254.942669	0.281437	0.250913	562.731445
5254.943711	0.289255	0.250913	864.135559
5254.944598	0.286263	0.250913	1118.051147
5254.945537	0.275479	0.250913	1376.725464
5254.946610	0.256611	0.250913	1652.069336
5254.947541	0.246672	0.250913	1881.721313
5254.948413	0.320753	0.250913	2161.417969
5254.949453	0.091102	0.250913	2256.164307
5254.950479	0.092168	0.250913	2350.728516
5254.951371	0.092468	0.250913	2433.210205
5254.952342	0.091586	0.250913	2522.139893
5254.953400	0.091190	0.250913	2618.619141
5254.954329	0.091849	0.250913	2703.947266
5254.955194	0.091710	0.250913	2783.276611
5254.956271	0.090798	0.250913	2881.066406
5254.957263	0.091150	0.250913	2971.487061
5254.958147	0.091545	0.250913	3052.413086
5255.980999	0.589504	0.229688	257.023926
5255.981885	0.279774	0.229688	504.903870
5255.982762	0.288886	0.229688	758.256470
5255.983738	0.287823	0.229688	1039.172241
5255.984688	0.279177	0.229688	1304.390625
5255.985573	0.264752	0.229688	1538.696289
5255.986540	0.249097	0.229688	1779.572754
5255.987481	0.326232	0.229688	2086.556641
5255.988411	0.091278	0.229688	2171.445312
5255.989285	0.092161	0.229688	2251.993652
5255.990307	0.092113	0.229688	2346.133301
5255.991205	0.092476	0.229688	2429.176270
5255.992079	0.092399	0.229688	2509.932617
5255.993026	0.091615	0.229688	2596.691895
5255.994024	0.091494	0.229688	2688.002930
5255.994943	0.091359	0.229688	2771.961426
5255.995806	0.091494	0.229688	2850.920898
5255.996845	0.091439	0.229688	2945.926270
5256.978373	0.617146	0.247199	265.372772
5256.979235	0.279291	0.247199	506.121399
5256.980298	0.289102	0.247199	813.436401
5256.981190	0.287285	0.247199	1069.694824
5256.982059	0.278804	0.247199	1311.975220
5256.983029	0.262899	0.247199	1566.987427
5256.983980	0.248016	0.247199	1802.850952
5256.984865	0.342803	0.247199	2106.231445
5256.985816	0.090776	0.247199	2192.559814
5256.986854	0.091860	0.247199	2287.910889
5256.987741	0.091934	0.247199	2369.456055
5256.988603	0.091798	0.247199	2448.585937
5256.989674	0.091135	0.247199	2546.191895
5256.990625	0.091366	0.247199	2633.081055
5256.991503	0.091615	0.247199	2713.519043
5256.992434	0.091219	0.247199	2798.444336
5256.993491	0.091095	0.247199	2894.731689
5256.994373	0.091198	0.247199	2975.167969
5258.017225	0.620764	0.231488	271.894714
5258.018091	0.279792	0.231488	514.194946
5258.019159	0.289508	0.231488	823.389526
5258.020174	0.286835	0.231488	1114.526733
5258.021055	0.276910	0.231488	1358.484741
5258.022026	0.259709	0.231488	1610.662598
5258.023108	0.246812	0.231488	1877.712646
5258.024018	0.328077	0.231488	2176.263184
5258.024883	0.091198	0.231488	2255.148926
5258.025951	0.091556	0.231488	2352.931152
5258.026950	0.092380	0.231488	2445.219238
5258.027841	0.092556	0.231488	2527.686768
5258.028828	0.091077	0.231488	2617.579346
5258.029880	0.091263	0.231488	2713.588379
5258.030795	0.091783	0.231488	2797.570312
5258.031655	0.091201	0.231488	2876.003418
5258.032752	0.090831	0.231488	2975.645264
5258.033714	0.091165	0.231488	3063.345459
5259.014583	0.644099	0.254216	271.165741
5259.015604	0.281594	0.254216	558.673462
5259.016651	0.289464	0.254216	861.742432
5259.017541	0.286501	0.254216	1116.728760
5259.018491	0.275676	0.254216	1378.621216
5259.019572	0.256458	0.254216	1655.851807
5259.020511	0.246632	0.254216	1887.439331
5259.021385	0.319991	0.254216	2167.111816
5259.022462	0.090985	0.254216	2265.102783
5259.023464	0.092395	0.254216	2357.682617
5259.024357	0.092051	0.254216	2439.884033
5259.025329	0.091414	0.254216	2528.738037
5259.026388	0.091337	0.254216	2625.463623
5259.027304	0.091765	0.254216	2709.520508
5259.028170	0.091630	0.254216	2788.871826
5259.029250	0.090864	0.254216	2887.005127
5259.030233	0.091150	0.254216	2976.605469
5259.031127	0.091761	0.254216	3058.640137
5260.053955	0.602963	0.236838	260.479889
5260.054818	0.279261	0.236838	501.482544
5260.055923	0.288929	0.236838	820.749634
5260.056892	0.286403	0.236838	1098.273682
5260.057760	0.276954	0.236838	1338.670044
5260.058832	0.258413	0.236838	1615.688965
5260.059864	0.246471	0.236838	1870.046997
5260.060751	0.334343	0.236838	2166.609375
5260.061678	0.091340	0.236838	2251.281738
5260.062772	0.091798	0.236838	2351.708740
5260.063689	0.092183	0.236838	2436.240234
5260.064554	0.092150	0.236838	2515.949707
5260.065583	0.091454	0.236838	2610.055664
5260.066616	0.091978	0.236838	2705.068359
5260.067502	0.091787	0.236838	2786.391846
5260.068462	0.091194	0.236838	2873.937988
5260.069506	0.090762	0.236838	2968.693115
5260.070433	0.092135	0.236838	3054.102295
5261.051959	0.513735	0.247360	282.040710
5261.053024	0.283403	0.247360	583.865234
5261.053916	0.289252	0.247360	841.877747
5261.054824	0.285963	0.247360	1101.532227
5261.055927	0.272794	0.247360	1402.424194
5261.056883	0.255154	0.247360	1646.351196
5261.057755	0.246398	0.247360	1861.209961
5261.058813	0.287483	0.247360	2165.366943
5261.059825	0.091820	0.247360	2258.288818
5261.060715	0.092772	0.247360	2340.856201
5261.061683	0.092069	0.247360	2429.979004
5261.062740	0.091512	0.247360	2526.707764
5261.063657	0.092095	0.247360	2611.158691
5261.064515	0.092168	0.247360	2690.238770
5261.065574	0.091014	0.247360	2786.623047
5261.066582	0.091545	0.247360	2878.900879
5261.067462	0.091805	0.247360	2959.689697
5261.068452	0.091029	0.247360	3049.808350
5262.090687	0.633010	0.238494	270.295380
5262.091559	0.279210	0.238494	513.766663
5262.092551	0.288812	0.238494	800.268433
5262.093497	0.287571	0.238494	1072.310425
5262.094421	0.278595	0.238494	1329.732178
5262.095285	0.264078	0.238494	1557.895874
5262.096325	0.248174	0.238494	1815.996704
5262.097211	0.386759	0.238494	2158.665283
5262.098087	0.091765	0.238494	2239.051514
5262.099016	0.092340	0.238494	2324.835449
5262.100012	0.092322	0.238494	2416.787842
5262.100930	0.092706	0.238494	2501.892334
5262.101802	0.092732	0.238494	2582.754639
5262.102915	0.091553	0.238494	2684.652832
5262.103808	0.092369	0.238494	2767.138672
5262.104681	0.091879	0.238494	2847.348633
5262.105571	0.091348	0.238494	2928.647949
5262.106592	0.091783	0.238494	3022.358887
5263.088673	0.649907	0.246450	343.800934
5263.089690	0.282814	0.246450	631.422485
5263.090585	0.289241	0.246450	890.292969
5263.091556	0.286014	0.246450	1168.012939
5263.092622	0.273600	0.246450	1459.670410
5263.093548	0.256681	0.246450	1697.356934
5263.094418	0.246566	0.246450	1911.869507
5263.095531	0.305618	0.246450	2252.021973
5263.096516	0.092380	0.246450	2343.016602
5263.097411	0.092985	0.246450	2426.237793
5263.098402	0.091904	0.246450	2517.314941
5263.099443	0.092084	0.246450	2613.174072
5263.100337	0.092670	0.246450	2696.020752
5263.101207	0.092186	0.246450	2776.222900
5263.102322	0.091022	0.246450	2877.712158
5263.103272	0.092073	0.246450	2965.181152
5263.104132	0.092432	0.246450	3044.672363
5263.105173	0.090762	0.246450	3139.155273
5264.127422	0.632725	0.234772	269.540680
5264.128460	0.281927	0.234772	562.181396
5264.129502	0.289530	0.234772	863.871704
5264.130395	0.286483	0.234772	1119.701172
5264.131351	0.275728	0.234772	1383.296631
5264.132411	0.256461	0.234772	1655.145508
5264.133354	0.246617	0.234772	1887.705811
5264.134228	0.322500	0.234772	2169.570801
5264.135309	0.090948	0.234772	2267.886230
5264.136304	0.092014	0.234772	2359.440430
5264.137187	0.092340	0.234772	2440.976807
5264.138180	0.091377	0.234772	2531.714111
5264.139226	0.091362	0.234772	2627.279053
5264.140130	0.091868	0.234772	2710.327393
5264.140988	0.091641	0.234772	2788.955078
5264.142080	0.090853	0.234772	2888.166748
5264.143069	0.091659	0.234772	2978.817383
5264.143942	0.091465	0.234772	3058.666260
5265.125906	0.551704	0.252984	281.920807
5265.126793	0.280847	0.252984	531.032227
5265.127657	0.288823	0.252984	780.575500
5265.128770	0.286578	0.252984	1099.537231
5265.129733	0.275848	0.252984	1365.179199
5265.130598	0.260629	0.252984	1590.622925
5265.131638	0.246852	0.252984	1847.348755
5265.132682	0.264210	0.252984	2123.184326
5265.133557	0.092069	0.252984	2203.744873
5265.134471	0.091772	0.252984	2287.625000
5265.135545	0.091600	0.252984	2386.003662
5265.136488	0.091948	0.252984	2472.710937
5265.137357	0.091879	0.252984	2552.553467
5265.138379	0.091080	0.252984	2645.637451
5265.139413	0.090985	0.252984	2739.716064
5265.140304	0.091278	0.252984	2821.044922
5265.141258	0.090919	0.252984	2907.781738
5265.142314	0.090630	0.252984	3003.486816
5266.163143	0.631458	0.240016	274.684021
5266.164018	0.279573	0.240016	519.310181
5266.165093	0.289237	0.240016	830.239990
5266.166100	0.286344	0.240016	1118.588379
5266.166993	0.276519	0.240016	1365.519409
5266.167980	0.259241	0.240016	1621.390015
5266.169052	0.246760	0.240016	1885.916992
5266.169968	0.316560	0.240016	2175.885986
5266.170885	0.091604	0.240016	2259.886963
5266.171762	0.092373	0.240016	2340.898193
5266.172722	0.092062	0.240016	2429.277588
5266.173656	0.091868	0.240016	2515.082031
5266.174543	0.092109	0.240016	2596.782959
5266.175447	0.091421	0.240016	2679.427490
5266.176411	0.091359	0.240016	2767.497314
5266.177335	0.091549	0.240016	2852.088623
5266.178223	0.091534	0.240016	2933.371094
5266.179182	0.090905	0.240016	3020.548584
5267.162612	1.135199	0.252850	530.137939
5267.163497	2.177619	0.252850	2457.330322
5267.164379	2.353158	0.252850	4532.815430
5267.165392	1.868540	0.252850	6425.646484
5267.166339	0.894283	0.252850	7272.532715
5267.167215	0.754373	0.252850	7933.363281
5267.168176	0.729690	0.252850	8634.595703
5267.169214	0.548646	0.252850	9204.090820
5267.170104	0.091252	0.252850	9285.305664
5267.170967	0.092531	0.252850	9365.159180
5267.171995	0.091699	0.252850	9459.425781
5267.172943	0.092659	0.252850	9547.266602
5267.173821	0.091868	0.252850	9627.926758
5267.174743	0.091395	0.252850	9712.193359
5267.175796	0.091260	0.252850	9808.290039
5267.176676	0.091912	0.252850	9889.171875
5267.177538	0.091934	0.252850	9968.418945
5267.178583	0.090959	0.252850	10063.471680
5268.199370	0.604156	0.242043	266.433014
5268.200244	0.279924	0.242043	511.086884
5268.201270	0.289416	0.242043	808.028198
5268.202318	0.287051	0.242043	1108.857422
5268.203208	0.277130	0.242043	1355.503174
5268.204099	0.260724	0.242043	1587.808105
5268.205217	0.247013	0.242043	1863.968506
5268.206163	0.299714	0.242043	2147.498291
5268.207028	0.091278	0.242043	2226.453857
5268.208050	0.091630	0.242043	2320.099365
5268.209084	0.091710	0.242043	2414.927734
5268.209976	0.091989	0.242043	2496.981445
5268.210918	0.091450	0.242043	2583.127441
5268.211983	0.091073	0.242043	2680.120117
5268.212919	0.091622	0.242043	2765.878662
5268.213784	0.091545	0.242043	2845.065430
5268.214851	0.090842	0.242043	2941.994141
5268.215859	0.090967	0.242043	3033.688721
5269.200941	0.649786	0.248432	350.884644
5269.202005	0.283912	0.248432	652.967407
5269.202922	0.289761	0.248432	918.677979
5269.203787	0.286604	0.248432	1166.590454
5269.204870	0.274124	0.248432	1463.466187
5269.205857	0.255732	0.248432	1715.874023
5269.206751	0.246636	0.248432	1936.366333
5269.207756	0.279979	0.248432	2217.745605
5269.208818	0.091370	0.248432	2314.780273
5269.209712	0.092205	0.248432	2397.211182
5269.210576	0.091556	0.248432	2476.315918
5269.211684	0.091296	0.248432	2577.472412
5269.212650	0.092054	0.248432	2666.396973
5269.213519	0.091959	0.248432	2746.309570
5269.214563	0.090989	0.248432	2841.301758
5269.215598	0.091036	0.248432	2935.524414
5269.216489	0.092029	0.248432	3017.521973
5269.217379	0.090912	0.248432	3098.433594
5270.235620	0.592240	0.240182	275.983826
5270.236500	0.280382	0.240182	522.720093
5270.237477	0.289230	0.240182	805.297485
5270.238548	0.286860	0.240182	1112.524902
5270.239474	0.276500	0.240182	1368.564087
5270.240341	0.260647	0.240182	1594.545044
5270.241454	0.247002	0.240182	1869.458252
5270.242447	0.325327	0.240182	2192.508057
5270.243341	0.091644	0.240182	2274.437988
5270.244327	0.091648	0.240182	2364.802979
5270.245385	0.092157	0.240182	2462.305176
5270.246284	0.092175	0.240182	2545.170654
5270.247148	0.091772	0.240182	2624.462158
5270.248251	0.091293	0.240182	2725.157959
5270.249215	0.091670	0.240182	2813.527832
5270.250077	0.092018	0.240182	2892.847168
5270.251122	0.090923	0.240182	2987.861572
5270.252171	0.091366	0.240182	3083.704590
5271.237044	0.647135	0.247146	272.443848
5271.237928	0.279375	0.247146	519.411316
5271.238980	0.289156	0.247146	823.603943
5271.239877	0.287395	0.247146	1081.397217
5271.240756	0.278712	0.247146	1326.385254
5271.241784	0.261888	0.247146	1595.606567
5271.242706	0.247482	0.247146	1823.784668
5271.243641	0.346289	0.247146	2147.564941
5271.244504	0.090802	0.247146	2225.927002
5271.245555	0.092208	0.247146	2322.837891
5271.246428	0.091688	0.247146	2402.881836
5271.247304	0.092076	0.247146	2483.540771
5271.248281	0.091838	0.247146	2573.266846
5271.249216	0.091436	0.247146	2658.759033
5271.250131	0.091769	0.247146	2742.727539
5271.251011	0.091945	0.247146	2823.638672
5271.252046	0.091307	0.247146	2918.141846
5271.252944	0.091406	0.247146	3000.224609
5272.271376	1.230919	0.246373	622.845093
5272.272327	2.248894	0.246373	2761.543457
5272.273200	2.341351	0.246373	4805.542969
5272.274249	1.683076	0.246373	6571.089844
5272.275299	0.817797	0.246373	7429.776367
5272.276194	0.745884	0.246373	8097.342285
5272.277133	0.723538	0.246373	8776.744141
5272.278205	0.372319	0.246373	9175.870117
5272.279144	0.091458	0.246373	9261.749023
5272.280008	0.092311	0.246373	9341.505859
5272.281072	0.091736	0.246373	9439.113281
5272.282088	0.091710	0.246373	9532.291016
5272.282980	0.092080	0.246373	9614.426758
5272.283953	0.091406	0.246373	9703.365234
5272.285007	0.091227	0.246373	9799.518555
5272.285930	0.091791	0.246373	9884.241211
5272.286794	0.091388	0.246373	9963.200195
5272.287883	0.090857	0.246373	10062.143555
5273.274391	0.565016	0.248524	284.768005
5273.275398	0.282770	0.248524	569.517151
5273.276288	0.289405	0.248524	827.088013
5273.277289	0.286549	0.248524	1113.923584
5273.278344	0.274384	0.248524	1403.398193
5273.279240	0.257692	0.248524	1634.289917
5273.280100	0.246793	0.248524	1846.532104
5273.281201	0.292906	0.248524	2169.022217
5273.282195	0.091655	0.248524	2260.127441
5273.283068	0.092820	0.248524	2341.159180
5273.284056	0.091681	0.248524	2431.739990
5273.285121	0.091963	0.248524	2529.680420
5273.286012	0.092439	0.248524	2612.043457
5273.286902	0.091534	0.248524	2693.509033
5273.287987	0.091249	0.248524	2792.513916
5273.288938	0.091384	0.248524	2879.420410
5273.289803	0.091505	0.248524	2958.572266
5273.290832	0.090688	0.248524	3051.890625
5274.306487	0.644623	0.247819	271.386200
5274.307564	0.282539	0.247819	575.680786
5274.308587	0.289790	0.247819	872.135986
5274.309489	0.286663	0.247819	1130.705688
5274.310476	0.275442	0.247819	1402.566895
5274.311543	0.256007	0.247819	1675.726440
5274.312454	0.246573	0.247819	1900.354858
5274.313327	0.318655	0.247819	2178.540527
5274.314435	0.090912	0.247819	2279.270996
5274.315424	0.092036	0.247819	2370.294678
5274.316303	0.092651	0.247819	2451.735352
5274.317305	0.091556	0.247819	2543.474854
5274.318361	0.091674	0.247819	2640.282227
5274.319246	0.092098	0.247819	2721.789307
5274.320131	0.091304	0.247819	2802.593018
5274.321218	0.091040	0.247819	2901.553467
5274.322170	0.091545	0.247819	2988.704590
5274.323028	0.091659	0.247819	3067.347900
5275.312572	0.644454	0.248645	272.604187
5275.313517	0.279987	0.248645	537.191528
5275.314577	0.289347	0.248645	843.899292
5275.315518	0.286783	0.248645	1113.762451
5275.316389	0.277386	0.248645	1355.366089
5275.317457	0.258545	0.248645	1631.492065
5275.318482	0.246544	0.248645	1884.199829
5275.319386	0.349534	0.248645	2200.178223
5275.320363	0.090945	0.248645	2289.031250
5275.321418	0.091934	0.248645	2386.021240
5275.322337	0.092520	0.248645	2471.046631
5275.323199	0.092362	0.248645	2550.662598
5275.324284	0.091271	0.248645	2649.691406
5275.325274	0.091556	0.248645	2740.332275
5275.326164	0.091868	0.248645	2822.094482
5275.327176	0.090886	0.248645	2914.071289
5275.328236	0.091124	0.248645	3010.663086
5275.329116	0.091860	0.248645	3091.500244
5276.342723	0.610118	0.248089	264.791382
5276.343585	0.279584	0.248089	505.792572
5276.344689	0.289186	0.248089	825.053711
5276.345591	0.286860	0.248089	1083.801758
5276.346461	0.277892	0.248089	1325.567627
5276.347455	0.260947	0.248089	1584.949219
5276.348468	0.247192	0.248089	1835.355103
5276.349369	0.371096	0.248089	2169.712891
5276.350231	0.091062	0.248089	2248.208252
5276.351326	0.091853	0.248089	2348.787354
5276.352243	0.092366	0.248089	2433.486816
5276.353118	0.092201	0.248089	2514.162598
5276.354111	0.091417	0.248089	2604.939941
5276.355109	0.091978	0.248089	2696.733398
5276.355997	0.092285	0.248089	2778.682617
5276.356856	0.091523	0.248089	2857.301270
5276.357940	0.091267	0.248089	2956.234863
5276.358849	0.091930	0.248089	3039.799072
5277.350461	0.512175	0.243747	277.598999
5277.351501	0.283466	0.243747	572.403198
5277.352387	0.289600	0.243747	828.988403
5277.353348	0.286256	0.243747	1104.080566
5277.354414	0.273567	0.243747	1395.702881
5277.355336	0.256249	0.243747	1631.964233
5277.356208	0.246584	0.243747	1846.985840
5277.357253	0.278485	0.243747	2138.002686
5277.358273	0.091256	0.243747	2231.083984
5277.359159	0.092523	0.243747	2313.059570
5277.360128	0.091648	0.243747	2401.866455
5277.361183	0.091410	0.243747	2498.303955
5277.362098	0.091831	0.243747	2582.329346
5277.362961	0.091439	0.243747	2661.241455
5277.364043	0.091014	0.243747	2759.718994
5277.365032	0.091505	0.243747	2850.217529
5277.365923	0.091527	0.243747	2931.768066
5277.366919	0.090978	0.243747	3022.381836
5278.380070	0.637742	0.243352	339.278564
5278.381130	0.283777	0.243352	640.082031
5278.382047	0.289446	0.243352	905.503784
5278.382920	0.286128	0.243352	1155.293457
5278.384026	0.273442	0.243352	1457.720703
5278.384999	0.255286	0.243352	1706.113647
5278.385885	0.246460	0.243352	1924.477173
5278.386890	0.285399	0.243352	2211.303223
5278.387949	0.091765	0.243352	2308.482422
5278.388837	0.092428	0.243352	2390.558594
5278.389726	0.092369	0.243352	2472.675049
5278.390831	0.091597	0.243352	2573.889404
5278.391792	0.091981	0.243352	2662.283447
5278.392654	0.091699	0.243352	2741.328125
5278.393688	0.091033	0.243352	2835.456055
5278.394716	0.091249	0.243352	2929.259766
5278.395597	0.091956	0.243352	3010.272705
5278.396531	0.090897	0.243352	3095.170654
5279.387175	0.556692	0.246570	287.809692
5279.388191	0.283085	0.246570	575.423767
5279.389072	0.289384	0.246570	830.370667
5279.390076	0.286135	0.246570	1117.650391
5279.391137	0.273860	0.246570	1408.215698
5279.392035	0.257135	0.246570	1639.122925
5279.392896	0.246936	0.246570	1851.734863
5279.394017	0.290980	0.246570	2177.923584
5279.394977	0.091729	0.246570	2265.982910
5279.395834	0.092655	0.246570	2345.388184
5279.396876	0.091589	0.246570	2440.824219
5279.397904	0.091564	0.246570	2534.951660
5279.398795	0.091912	0.246570	2616.844971
5279.399712	0.091589	0.246570	2700.832520
5279.400785	0.091007	0.246570	2798.483154
5279.401735	0.091710	0.246570	2885.607910
5279.402604	0.091739	0.246570	2965.329590
5279.403660	0.090868	0.246570	3061.286133
5280.415187	0.565818	0.248597	248.959839
5280.416054	0.280056	0.248597	491.768524
5280.417159	0.289534	0.248597	811.703247
5280.418165	0.286586	0.248597	1100.008423
5280.419050	0.276346	0.248597	1344.574951
5280.420068	0.258171	0.248597	1607.393433
5280.421115	0.246947	0.248597	1865.947021
5280.422001	0.315143	0.248597	2145.163574
5280.422894	0.091095	0.248597	2226.511475
5280.423993	0.091824	0.248597	2327.425781
5280.424938	0.092281	0.248597	2414.631836
5280.425796	0.092084	0.248597	2493.639648
5280.426827	0.091263	0.248597	2587.732178
5280.427874	0.091458	0.248597	2683.488281
5280.428754	0.091747	0.248597	2764.225586
5280.429711	0.091014	0.248597	2851.326416
5280.430766	0.091091	0.248597	2947.427734
5280.431694	0.091340	0.248597	3032.191650
5281.424841	0.645330	0.244335	280.718384
5281.425706	0.279518	0.244335	522.501343
5281.426763	0.289303	0.244335	828.294556
5281.427802	0.286710	0.244335	1126.186523
5281.428688	0.276808	0.244335	1371.438232
5281.429631	0.260186	0.244335	1616.793213
5281.430702	0.246885	0.244335	1881.206787
5281.431624	0.317142	0.244335	2173.612061
5281.432492	0.091534	0.244335	2253.063965
5281.433547	0.091622	0.244335	2349.725586
5281.434554	0.091707	0.244335	2442.073975
5281.435441	0.092520	0.244335	2524.138672
5281.436405	0.091520	0.244335	2612.363770
5281.437466	0.091534	0.244335	2709.481689
5281.438381	0.091630	0.244335	2793.322754
5281.439246	0.091714	0.244335	2872.655273
5281.440323	0.090886	0.244335	2970.539795
5281.441313	0.091399	0.244335	3061.024658
5282.451404	0.631677	0.247086	277.937958
5282.452320	0.280334	0.247086	534.724365
5282.453198	0.288995	0.247086	788.462280
5282.454244	0.287476	0.247086	1089.161743
5282.455151	0.278199	0.247086	1341.488647
5282.456032	0.263353	0.247086	1573.502930
5282.456968	0.248650	0.247086	1806.239258
5282.457977	0.391304	0.247086	2201.064697
5282.458899	0.090868	0.247086	2284.844971
5282.459781	0.092820	0.247086	2366.712158
5282.460798	0.092747	0.247086	2461.035400
5282.461694	0.092402	0.247086	2543.827881
5282.462615	0.092095	0.247086	2628.647217
5282.463474	0.091483	0.247086	2707.231201
5282.464522	0.091791	0.247086	2803.427979
5282.465412	0.091556	0.247086	2884.913086
5282.466287	0.091505	0.247086	2964.979980
5282.467277	0.091161	0.247086	3055.229248
5283.462645	0.646765	0.238498	311.740784
5283.463687	0.282444	0.238498	606.047241
5283.464638	0.289277	0.238498	881.150024
5283.465501	0.286505	0.238498	1128.403931
5283.466550	0.274563	0.238498	1416.420532
5283.467577	0.256113	0.238498	1679.448853
5283.468461	0.246570	0.238498	1897.416504
5283.469424	0.239630	0.238498	2128.180420
5283.470482	0.091007	0.238498	2224.465820
5283.471401	0.091926	0.238498	2308.946045
5283.472260	0.092168	0.238498	2388.118408
5283.473301	0.091359	0.238498	2483.222656
5283.474311	0.091831	0.238498	2575.971924
5283.475196	0.092014	0.238498	2657.404541
5283.476165	0.091069	0.238498	2745.650635
5283.477222	0.090875	0.238498	2841.705811
5283.478132	0.091527	0.238498	2924.995361
5283.479001	0.091293	0.238498	3004.328613
5284.487641	0.549342	0.250869	247.753265
5284.488519	0.279957	0.250869	493.555725
5284.489515	0.289219	0.250869	781.617615
5284.490561	0.287084	0.250869	1081.907227
5284.491469	0.277159	0.250869	1333.567993
5284.492332	0.261412	0.250869	1559.166870
5284.493444	0.247156	0.250869	1834.004028
5284.494429	0.327045	0.250869	2156.143066
5284.495287	0.091260	0.250869	2234.443848
5284.496309	0.091604	0.250869	2328.063232
5284.497341	0.091707	0.250869	2422.704346
5284.498219	0.092600	0.250869	2504.007324
5284.499098	0.091608	0.250869	2584.530518
5284.500191	0.091238	0.250869	2684.253418
5284.501140	0.091934	0.250869	2771.498291
5284.502011	0.091644	0.250869	2851.320557
5284.503020	0.090894	0.250869	2943.032227
5284.504066	0.092007	0.250869	3039.271484
5285.498811	0.645421	0.247570	272.367737
5285.499883	0.282459	0.247570	575.163269
5285.500878	0.289731	0.247570	863.446045
5285.501770	0.286827	0.247570	1119.296021
5285.502766	0.275607	0.247570	1393.800293
5285.503833	0.256472	0.247570	1667.456055
5285.504737	0.246713	0.247570	1890.484253
5285.505608	0.326096	0.247570	2174.514160
5285.506728	0.091007	0.247570	2276.442139
5285.507689	0.092025	0.247570	2364.878418
5285.508553	0.092292	0.247570	2444.619141
5285.509579	0.091476	0.247570	2538.473389
5285.510625	0.091589	0.247570	2634.275879
5285.511515	0.091637	0.247570	2715.832764
5285.512401	0.091567	0.247570	2796.961426
5285.513481	0.090912	0.247570	2895.146240
5285.514436	0.091923	0.247570	2982.932373
5285.515298	0.091165	0.247570	3061.516113
5286.524360	0.616989	0.253846	267.773041
5286.525227	0.279412	0.253846	510.022888
5286.526300	0.289365	0.253846	820.511780
5286.527329	0.286542	0.253846	1115.363281
5286.528228	0.276270	0.253846	1363.729614
5286.529198	0.259211	0.253846	1615.164673
5286.530245	0.246797	0.253846	1873.561035
5286.531172	0.316011	0.253846	2166.502930
5286.532032	0.091556	0.253846	2245.241455
5286.533107	0.091732	0.253846	2343.853516
5286.534104	0.092377	0.253846	2435.953125
5286.534979	0.092120	0.253846	2516.558350
5286.535979	0.091454	0.253846	2608.012207
5286.537030	0.091714	0.253846	2704.403564
5286.537921	0.091699	0.253846	2786.107666
5286.538825	0.091128	0.253846	2868.487305
5286.539710	0.091945	0.253846	2949.858154
5286.540674	0.091589	0.253846	3038.150391
5287.534028	0.587296	0.251541	258.997620
5287.534904	0.279943	0.251541	504.227356
5287.535768	0.289167	0.251541	754.068054
5287.536865	0.287391	0.251541	1069.336426
5287.537770	0.277910	0.251541	1320.845093
5287.538647	0.263258	0.251541	1551.722412
5287.539661	0.248269	0.251541	1803.467163
5287.540669	0.352427	0.251541	2158.713379
5287.541550	0.091274	0.251541	2239.126221
5287.542410	0.091692	0.251541	2317.981201
5287.543475	0.092018	0.251541	2415.980225
5287.544397	0.091743	0.251541	2500.567383
5287.545275	0.092208	0.251541	2581.526123
5287.546261	0.091388	0.251541	2671.634521
5287.547273	0.091586	0.251541	2764.319336
5287.548162	0.091860	0.251541	2845.983154
5287.549022	0.091542	0.251541	2924.708984
5287.550112	0.090985	0.251541	3023.882812
5288.561599	0.644839	0.253572	275.346191
5288.562633	0.281689	0.253572	566.613098
5288.563677	0.289303	0.253572	868.645386
5288.564559	0.286392	0.253572	1121.242798
5288.565495	0.275823	0.253572	1379.412842
5288.566566	0.256868	0.253572	1654.518066
5288.567511	0.246929	0.253572	1887.865723
5288.568378	0.296913	0.253572	2145.289062
5288.569437	0.090802	0.253572	2241.448486
5288.570468	0.091681	0.253572	2335.971436
5288.571342	0.091912	0.253572	2416.302246
5288.572300	0.091670	0.253572	2504.122070
5288.573355	0.091296	0.253572	2600.439697
5288.574279	0.091154	0.253572	2684.665527
5288.575141	0.091227	0.253572	2763.302979
5288.576209	0.090802	0.253572	2860.279541
5288.577213	0.090868	0.253572	2951.510986
5288.578104	0.091102	0.253572	3032.683105
5289.571262	0.644780	0.250188	273.386841
5289.572257	0.280884	0.250188	552.866211
5289.573309	0.289757	0.250188	857.690674
5289.574219	0.286769	0.250188	1118.650269
5289.575085	0.276885	0.250188	1358.432495
5289.576173	0.258373	0.250188	1639.542114
5289.577173	0.246826	0.250188	1886.368286
5289.578054	0.334468	0.250188	2181.034424
5289.579050	0.090883	0.250188	2271.553467
5289.580097	0.091948	0.250188	2367.823242
5289.580989	0.092197	0.250188	2450.063232
5289.581853	0.092131	0.250188	2529.664795
5289.582961	0.091311	0.250188	2630.837402
5289.583929	0.091359	0.250188	2719.272461
5289.584798	0.092135	0.250188	2799.337891
5289.585823	0.091007	0.250188	2892.620117
5289.586870	0.091296	0.250188	2988.207520
5289.587762	0.091300	0.250188	3069.647217
5290.598330	0.631370	0.255493	267.700745
5290.599418	0.282429	0.255493	574.983704
5290.600412	0.289633	0.255493	862.878479
5290.601304	0.286652	0.255493	1118.571777
5290.602322	0.274874	0.255493	1398.393799
5290.603383	0.255817	0.255493	1669.815308
5290.604263	0.246632	0.255493	1886.851562
5290.605160	0.278756	0.255493	2136.895752
5290.606232	0.090916	0.255493	2234.357178
5290.607195	0.091758	0.255493	2322.719971
5290.608059	0.092128	0.255493	2402.318359
5290.609089	0.091307	0.255493	2496.364990
5290.610127	0.091743	0.255493	2591.594482
5290.610999	0.091487	0.255493	2671.371094
5290.611890	0.091234	0.255493	2752.660645
5290.612987	0.090992	0.255493	2852.479248
5290.613932	0.091527	0.255493	2938.972412
5290.614838	0.091461	0.255493	3021.836182
5291.608023	0.634468	0.247155	277.262421
5291.608891	0.279470	0.247155	519.842590
5291.609934	0.289270	0.247155	821.551208
5291.610822	0.287703	0.247155	1077.031128
5291.611688	0.279100	0.247155	1318.732056
5291.612580	0.263698	0.247155	1553.950195
5291.613643	0.247789	0.247155	1817.350220
5291.614546	0.354935	0.247155	2137.856934
5291.615425	0.091022	0.247155	2217.864990
5291.616420	0.091630	0.247155	2309.036377
5291.617354	0.091937	0.247155	2394.905762
5291.618281	0.092600	0.247155	2480.746094
5291.619147	0.092292	0.247155	2560.671387
5291.620179	0.091710	0.247155	2655.316406
5291.621060	0.091952	0.247155	2736.325928
5291.621932	0.091783	0.247155	2816.361084
5291.622923	0.091348	0.247155	2906.886719
5291.623849	0.091351	0.247155	2991.478027
5292.635068	0.630813	0.254748	268.095490
5292.636148	0.282356	0.254748	573.039917
5292.637105	0.289427	0.254748	850.022034
5292.637987	0.286809	0.254748	1102.987671
5292.638947	0.276511	0.254748	1368.438477
5292.639978	0.258087	0.254748	1634.526367
5292.640867	0.247097	0.254748	1854.195801
5292.641736	0.334578	0.254748	2144.943848
5292.642794	0.090875	0.254748	2241.089844
5292.643732	0.092340	0.254748	2327.704834
5292.644590	0.092120	0.254748	2406.744141
5292.645620	0.091417	0.254748	2500.903809
5292.646659	0.091805	0.254748	2596.289551
5292.647539	0.091835	0.254748	2677.104004
5292.648490	0.091293	0.254748	2763.923340
5292.649559	0.091399	0.254748	2861.628906
5292.650487	0.091143	0.254748	2946.209229
5292.651353	0.091139	0.254748	3025.135498
5293.643720	0.631351	0.247783	274.637817
5293.644583	0.279375	0.247783	515.738403
5293.645664	0.289321	0.247783	828.494751
5293.646673	0.286545	0.247783	1117.619019
5293.647559	0.276691	0.247783	1362.766968
5293.648559	0.259753	0.247783	1622.520386
5293.649618	0.246899	0.247783	1883.986816
5293.650531	0.321431	0.247783	2177.453125
5293.651388	0.090677	0.247783	2255.163818
5293.652467	0.091718	0.247783	2354.126953
5293.653462	0.091582	0.247783	2445.250977
5293.654335	0.092823	0.247783	2526.285889
5293.655330	0.091461	0.247783	2617.289795
5293.656388	0.091545	0.247783	2714.144775
5293.657276	0.092014	0.247783	2795.853271
5293.658136	0.091370	0.247783	2874.431152
5293.659241	0.091011	0.247783	2974.998047
5293.660200	0.091868	0.247783	3063.099121
5294.671934	0.500306	0.259135	278.670654
5294.672991	0.283879	0.259135	578.731201
5294.673890	0.289559	0.259135	839.045044
5294.674777	0.286073	0.259135	1092.791748
5294.675885	0.273197	0.259135	1395.494019
5294.676844	0.255699	0.259135	1640.709839
5294.677719	0.246584	0.259135	1856.471191
5294.678782	0.269495	0.259135	2142.943848
5294.679802	0.091857	0.259135	2236.637695
5294.680696	0.092249	0.259135	2319.107910
5294.681653	0.091619	0.259135	2406.786865
5294.682695	0.091414	0.259135	2502.039795
5294.683618	0.092073	0.259135	2587.022949
5294.684482	0.091564	0.259135	2666.134033
5294.685544	0.090989	0.259135	2762.764160
5294.686537	0.091494	0.259135	2853.617920
5294.687421	0.091846	0.259135	2934.809570
5294.688395	0.090890	0.259135	3023.336426
5295.680441	0.643997	0.250434	269.190582
5295.681315	0.279452	0.250434	513.431519
5295.682433	0.289138	0.250434	836.687988
5295.683390	0.286567	0.250434	1110.932983
5295.684262	0.277313	0.250434	1352.750122
5295.685315	0.258812	0.250434	1625.279419
5295.686355	0.246497	0.250434	1881.635864
5295.687244	0.317695	0.250434	2164.066895
5295.688213	0.091062	0.250434	2252.305908
5295.689262	0.091644	0.250434	2348.440674
5295.690180	0.092095	0.250434	2432.983643
5295.691036	0.092274	0.250434	2511.970215
5295.692104	0.091234	0.250434	2609.408203
5295.693114	0.091091	0.250434	2701.410400
5295.693984	0.092373	0.250434	2781.774902
5295.694938	0.090934	0.250434	2868.525879
5295.695976	0.091091	0.250434	2963.078613
5295.696902	0.091344	0.250434	3047.663086
5296.708631	0.566455	0.255078	286.059814
5296.709645	0.282605	0.255078	572.621277
5296.710535	0.289303	0.255078	830.100952
5296.711497	0.286205	0.255078	1105.430054
5296.712548	0.274167	0.255078	1393.580078
5296.713485	0.256996	0.255078	1634.385254
5296.714353	0.246731	0.255078	1848.547729
5296.715451	0.285956	0.255078	2162.527344
5296.716449	0.090923	0.255078	2253.268311
5296.717343	0.092684	0.255078	2336.128174
5296.718348	0.091531	0.255078	2428.116699
5296.719384	0.091545	0.255078	2522.957764
5296.720281	0.092153	0.255078	2605.619385
5296.721141	0.091813	0.255078	2684.578369
5296.722235	0.091062	0.255078	2784.200195
5296.723202	0.091765	0.255078	2872.937012
5296.724063	0.091644	0.255078	2951.842773
5296.725149	0.090677	0.255078	3050.318604
5297.716692	0.617626	0.250639	271.137695
5297.717559	0.279346	0.250639	513.330444
5297.718536	0.288644	0.250639	795.335449
5297.719572	0.286930	0.250639	1092.594849
5297.720466	0.277430	0.250639	1340.617676
5297.721337	0.262357	0.250639	1569.130737
5297.722430	0.247365	0.250639	1839.500122
5297.723376	0.325887	0.250639	2147.789551
5297.724252	0.091329	0.250639	2227.793945
5297.725215	0.091663	0.250639	2316.064941
5297.726236	0.092322	0.250639	2410.325439
5297.727127	0.091952	0.250639	2492.254639
5297.727987	0.091754	0.250639	2571.163086
5297.729082	0.091333	0.250639	2671.172852
5297.730005	0.091743	0.250639	2755.851807
5297.730875	0.091776	0.250639	2835.697021
5297.731861	0.090890	0.250639	2925.314453
5297.732871	0.091018	0.250639	3017.242676
5298.746826	0.617380	0.247344	266.708313
5298.747727	0.279672	0.247344	518.692444
5298.748823	0.289167	0.247344	835.619995
5298.749769	0.286439	0.247344	1106.591553
5298.750635	0.277159	0.247344	1346.611572
5298.751703	0.258787	0.247344	1622.995605
5298.752726	0.246768	0.247344	1875.438843
5298.753614	0.316688	0.247344	2156.657959
5298.754567	0.091227	0.247344	2243.597168
5298.755634	0.091593	0.247344	2341.326904
5298.756541	0.092296	0.247344	2425.039551
5298.757405	0.092201	0.247344	2504.701172
5298.758462	0.091176	0.247344	2601.073730
5298.759488	0.091447	0.247344	2694.897949
5298.760379	0.091183	0.247344	2776.141846
5298.761358	0.091165	0.247344	2865.391846
5298.762416	0.091146	0.247344	2961.824463
5298.763330	0.091102	0.247344	3045.092041
5299.752909	1.128267	0.252540	497.565552
5299.753780	2.117102	0.252540	2341.561523
5299.754785	2.314680	0.252540	4667.814941
5299.755846	1.674873	0.252540	6444.855469
5299.756741	0.850378	0.252540	7205.944336
5299.757631	0.753267	0.252540	7876.351562
5299.758723	0.725394	0.252540	8668.482422
5299.759674	0.477455	0.252540	9122.541992
5299.760539	0.091816	0.252540	9201.962891
5299.761577	0.091835	0.252540	9297.287109
5299.762609	0.092563	0.252540	9392.812500
5299.763493	0.092622	0.252540	9474.690430
5299.764441	0.091820	0.252540	9561.736328
5299.765492	0.091487	0.252540	9657.888672
5299.766417	0.092450	0.252540	9743.405273
5299.767273	0.091600	0.252540	9821.815430
5299.768330	0.090879	0.252540	9917.874023
5299.769338	0.091073	0.252540	10009.675781
5300.783047	0.632014	0.259014	271.134064
5300.783932	0.279932	0.259014	518.873535
5300.784809	0.289252	0.259014	772.547241
5300.785777	0.288582	0.259014	1051.894165
5300.786695	0.279954	0.259014	1308.891602
5300.787584	0.265334	0.259014	1544.773926
5300.788514	0.249525	0.259014	1776.832275
5300.789506	0.387927	0.259014	2161.656006
5300.790437	0.090674	0.259014	2246.073242
5300.791302	0.092494	0.259014	2326.080566
5300.792339	0.091941	0.259014	2421.423340
5300.793213	0.092325	0.259014	2502.115723
5300.794087	0.092062	0.259014	2582.577637
5300.794945	0.091893	0.259014	2661.422119
5300.796016	0.091747	0.259014	2759.682861
5300.796902	0.091714	0.259014	2840.941406
5300.797776	0.091454	0.259014	2920.872070
5300.798766	0.090930	0.259014	3010.893066
5301.788200	1.339676	0.254377	718.066589
5301.789207	2.289280	0.254377	3023.371338
5301.790098	2.330369	0.254377	5099.729980
5301.790966	1.775391	0.254377	6640.769043
5301.792062	0.839711	0.254377	7561.091797
5301.792973	0.748744	0.254377	8243.197266
5301.793844	0.725863	0.254377	8875.423828
5301.794835	0.469768	0.254377	9340.963867
5301.795850	0.091227	0.254377	9433.558594
5301.796741	0.092618	0.254377	9516.082031
5301.797605	0.092128	0.254377	9595.680664
5301.798688	0.091545	0.254377	9694.824219
5301.799620	0.092036	0.254377	9780.601562
5301.800494	0.091879	0.254377	9860.903320
5301.801466	0.091179	0.254377	9949.529297
5301.802489	0.091915	0.254377	10043.558594
5301.803377	0.091483	0.254377	10124.795898
5301.804237	0.091274	0.254377	10203.291992
5302.820906	0.635365	0.251682	341.190979
5302.821964	0.283579	0.251682	641.217651
5302.822882	0.289398	0.251682	906.885193
5302.823746	0.286260	0.251682	1154.213623
5302.824834	0.273658	0.251682	1451.953979
5302.825833	0.255377	0.251682	1707.075806
5302.826712	0.246676	0.251682	1923.904053
5302.827709	0.288684	0.251682	2211.722168
5302.828758	0.091937	0.251682	2308.164307
5302.829643	0.092494	0.251682	2390.021484
5302.830512	0.092095	0.251682	2470.051758
5302.831618	0.091458	0.251682	2571.203857
5302.832585	0.092465	0.251682	2660.617187
5302.833454	0.091934	0.251682	2740.507568
5302.834521	0.091241	0.251682	2837.862305
5302.835566	0.091732	0.251682	2933.722412
5302.836459	0.092443	0.251682	3016.273682
5302.837385	0.091512	0.251682	3101.014160
5303.824913	0.566396	0.254409	288.862213
5303.825860	0.282114	0.254409	556.024414
5303.826736	0.289490	0.254409	809.617432
5303.827798	0.286710	0.254409	1114.103638
5303.828839	0.275021	0.254409	1400.400269
5303.829740	0.258131	0.254409	1632.976440
5303.830686	0.247079	0.254409	1866.713013
5303.831744	0.277416	0.254409	2160.218750
5303.832670	0.091428	0.254409	2244.881348
5303.833527	0.092128	0.254409	2323.834717
5303.834570	0.091604	0.254409	2419.377686
5303.835595	0.091882	0.254409	2513.557129
5303.836475	0.092084	0.254409	2594.590820
5303.837453	0.091278	0.254409	2683.860840
5303.838507	0.091106	0.254409	2779.886475
5303.839416	0.091501	0.254409	2863.061279
5303.840272	0.091377	0.254409	2941.280029
5303.841331	0.090857	0.254409	3037.497559
5304.857530	0.644246	0.258796	271.871643
5304.858551	0.281235	0.258796	559.012939
5304.859451	0.289321	0.258796	819.402100
5304.860375	0.287322	0.258796	1084.887451
5304.861238	0.278115	0.258796	1324.900879
5304.862285	0.261248	0.258796	1598.427124
5304.863167	0.247870	0.258796	1817.048340
5304.864049	0.394171	0.258796	2164.707275
5304.865050	0.091219	0.258796	2256.018066
5304.865988	0.092882	0.258796	2343.141357
5304.866915	0.092607	0.258796	2428.988525
5304.867782	0.092007	0.258796	2508.758545
5304.868827	0.091604	0.258796	2604.484619
5304.869716	0.091692	0.258796	2685.998779
5304.870588	0.091824	0.258796	2766.069092
5304.871582	0.091051	0.258796	2856.573730
5304.872545	0.091472	0.258796	2944.661377
5304.873473	0.091454	0.258796	3029.530518
5305.861191	0.558728	0.251417	316.798798
5305.862205	0.283704	0.251417	604.474243
5305.863092	0.289618	0.251417	861.365356
5305.863955	0.286681	0.251417	1108.770996
5305.865049	0.275050	0.251417	1409.675781
5305.865955	0.258292	0.251417	1643.688477
5305.866825	0.247075	0.251417	1858.643921
5305.867819	0.289933	0.251417	2146.837158
5305.868825	0.091117	0.251417	2238.500732
5305.869714	0.092531	0.251417	2320.760254
5305.870577	0.091893	0.251417	2400.064209
5305.871675	0.091666	0.251417	2500.713867
5305.872584	0.091604	0.251417	2583.981934
5305.873458	0.092076	0.251417	2664.456787
5305.874447	0.091300	0.251417	2754.752441
5305.875451	0.091414	0.251417	2846.531738
5305.876338	0.091750	0.251417	2927.914307
5305.877317	0.091198	0.251417	3017.196777
5306.894848	0.593489	0.257705	292.589966
5306.895762	0.281349	0.257705	549.742859
5306.896631	0.289318	0.257705	801.159851
5306.897707	0.286974	0.257705	1109.943726
5306.898709	0.275742	0.257705	1386.237427
5306.899606	0.260123	0.257705	1619.567993
5306.900593	0.247288	0.257705	1863.640869
5306.901647	0.275640	0.257705	2154.165039
5306.902555	0.091238	0.257705	2237.009033
5306.903417	0.091860	0.257705	2316.192627
5306.904520	0.091432	0.257705	2417.041992
5306.905489	0.091857	0.257705	2506.051025
5306.906371	0.092153	0.257705	2587.330322
5306.907388	0.091128	0.257705	2680.007324
5306.908439	0.091315	0.257705	2775.979004
5306.909323	0.091593	0.257705	2856.947266
5306.910208	0.090879	0.257705	2937.375000
5306.911302	0.090886	0.257705	3036.804443
5307.897382	0.525773	0.259985	273.401794
5307.898424	0.283590	0.259985	568.902710
5307.899319	0.289764	0.259985	828.241821
5307.900251	0.286611	0.259985	1095.363525
5307.901320	0.274222	0.259985	1388.507324
5307.902259	0.257043	0.259985	1629.871094
5307.903129	0.246844	0.259985	1844.625732
5307.904197	0.282056	0.259985	2145.861084
5307.905208	0.090978	0.259985	2237.839600
5307.906100	0.092450	0.259985	2320.304932
5307.907072	0.091655	0.259985	2409.393799
5307.908123	0.091688	0.259985	2505.758057
5307.909050	0.092120	0.259985	2591.153564
5307.909913	0.091769	0.259985	2670.350098
5307.911005	0.090992	0.259985	2769.713867
5307.911987	0.091311	0.259985	2859.381348
5307.912868	0.091941	0.259985	2940.381348
5307.913859	0.090798	0.259985	3030.362549
5308.932048	0.631835	0.251598	279.270935
5308.932917	0.279598	0.251598	522.241943
5308.933953	0.289449	0.251598	822.111572
5308.934982	0.287029	0.251598	1117.464233
5308.935881	0.277090	0.251598	1366.567993
5308.936826	0.260651	0.251598	1612.882812
5308.937897	0.247035	0.251598	1877.457275
5308.938833	0.307742	0.251598	2165.503418
5308.939692	0.091117	0.251598	2243.772949
5308.940748	0.091593	0.251598	2340.495117
5308.941753	0.091772	0.251598	2432.726562
5308.942630	0.091948	0.251598	2513.365234
5308.943612	0.091381	0.251598	2603.101074
5308.944642	0.091183	0.251598	2697.019531
5308.945563	0.092175	0.251598	2781.913086
5308.946418	0.091461	0.251598	2860.112305
5308.947473	0.090857	0.251598	2955.966309
5308.948487	0.091183	0.251598	3048.425781
5309.933507	0.616970	0.260053	264.680237
5309.934513	0.281071	0.260053	547.437256
5309.935456	0.289435	0.260053	820.374268
5309.936383	0.287336	0.260053	1086.735107
5309.937255	0.278104	0.260053	1329.241943
5309.938306	0.260497	0.260053	1603.024170
5309.939193	0.247522	0.260053	1822.576172
5309.940061	0.376512	0.260053	2149.388916
5309.941039	0.090864	0.260053	2238.254150
5309.941984	0.091934	0.260053	2325.131348
5309.942900	0.092648	0.260053	2409.996582
5309.943771	0.092545	0.260053	2490.603516
5309.944796	0.092109	0.260053	2585.015625
5309.945693	0.092402	0.260053	2667.900635
5309.946566	0.092607	0.260053	2748.746826
5309.947431	0.091399	0.260053	2827.806885
5309.948481	0.091359	0.260053	2923.733398
5309.949363	0.092098	0.260053	3004.964111
5310.969289	0.603025	0.246571	264.124908
5310.970151	0.279203	0.246571	504.797791
5310.971274	0.288944	0.246571	829.281982
5310.972174	0.286593	0.246571	1087.215698
5310.973046	0.277332	0.246571	1329.048828
5310.974045	0.260431	0.246571	1589.219238
5310.975044	0.246962	0.246571	1835.933960
5310.975941	0.337046	0.246571	2138.264160
5310.976944	0.090853	0.246571	2229.389893
5310.978007	0.091930	0.246571	2327.111328
5310.978888	0.092769	0.246571	2408.840332
5310.979765	0.091597	0.246571	2489.170654
5310.980870	0.091285	0.246571	2590.041016
5310.981823	0.091732	0.246571	2677.461670
5310.982694	0.091674	0.246571	2757.309326
5310.983728	0.090831	0.246571	2851.229004
5310.984775	0.091066	0.246571	2946.574707
5310.985667	0.091450	0.246571	3028.148193
5311.969206	0.644568	0.267034	272.007660
5311.970219	0.281521	0.267034	557.188416
5311.971280	0.289457	0.267034	864.302063
5311.972182	0.286523	0.267034	1122.746216
5311.973102	0.276280	0.267034	1376.924316
5311.974164	0.257377	0.267034	1650.258301
5311.975124	0.246910	0.267034	1887.292236
5311.975999	0.319691	0.267034	2167.021973
5311.977043	0.090938	0.267034	2261.960693
5311.978066	0.092369	0.267034	2356.454590
5311.978946	0.092538	0.267034	2437.887939
5311.979920	0.091996	0.267034	2527.491943
5311.980957	0.091179	0.267034	2622.044678
5311.981887	0.091813	0.267034	2707.430420
5311.982744	0.091776	0.267034	2786.082520
5311.983788	0.090908	0.267034	2880.990723
5311.984805	0.091531	0.267034	2974.077393
5311.985695	0.091637	0.267034	3055.634277
5313.006012	0.631165	0.254857	267.613770
5313.007083	0.282535	0.254857	570.209229
5313.008075	0.289658	0.254857	857.550171
5313.008964	0.286919	0.254857	1112.621094
5313.009973	0.275325	0.254857	1390.423706
5313.011019	0.256370	0.254857	1658.586304
5313.011931	0.246841	0.254857	1883.705078
5313.012798	0.310605	0.254857	2153.000000
5313.013886	0.090967	0.254857	2251.971924
5313.014878	0.092227	0.254857	2343.460693
5313.015763	0.092014	0.254857	2424.893311
5313.016775	0.091399	0.254857	2517.388916
5313.017825	0.091611	0.254857	2613.580811
5313.018696	0.091868	0.254857	2693.597656
5313.019588	0.091406	0.254857	2775.132080
5313.020687	0.090857	0.254857	2874.983887
5313.021648	0.091729	0.254857	2963.135010
5313.022515	0.091340	0.254857	3042.327148
5314.005437	0.644656	0.268440	274.623352
5314.006415	0.280514	0.268440	548.965942
5314.007470	0.289640	0.268440	854.536011
5314.008390	0.286952	0.268440	1118.531738
5314.009251	0.277079	0.268440	1357.096680
5314.010321	0.258395	0.268440	1633.579102
5314.011329	0.246896	0.268440	1882.449951
5314.012221	0.297426	0.268440	2147.753418
5314.013196	0.090938	0.268440	2236.417480
5314.014267	0.091908	0.268440	2334.850830
5314.015173	0.091901	0.268440	2418.112793
5314.016035	0.091754	0.268440	2497.204834
5314.017138	0.091201	0.268440	2597.799805
5314.018102	0.091505	0.268440	2686.010742
5314.019032	0.091219	0.268440	2770.844971
5314.019959	0.091227	0.268440	2855.412109
5314.020821	0.091000	0.268440	2933.854004
5314.021821	0.091168	0.268440	3025.022217
5315.042744	0.644447	0.253789	272.601105
5315.043774	0.281338	0.253789	562.379150
5315.044735	0.289237	0.253789	840.335937
5315.045624	0.287018	0.253789	1095.494751
5315.046531	0.277368	0.253789	1347.067627
5315.047629	0.259061	0.253789	1631.516846
5315.048517	0.246998	0.253789	1850.851318
5315.049388	0.348479	0.253789	2154.376465
5315.050432	0.090868	0.253789	2249.242676
5315.051392	0.092340	0.253789	2337.889160
5315.052261	0.092915	0.253789	2418.632324
5315.053120	0.092311	0.253789	2497.927246
5315.054238	0.091622	0.253789	2600.361084
5315.055127	0.092043	0.253789	2682.187744
5315.056002	0.091853	0.253789	2762.559082
5315.056997	0.090985	0.253789	2853.089355
5315.057999	0.091267	0.253789	2944.539062
5315.058889	0.091677	0.253789	3026.131836
5316.042760	0.634043	0.264613	318.289551
5316.043832	0.283433	0.264613	622.129272
5316.044774	0.289603	0.264613	894.935547
5316.045643	0.286538	0.264613	1143.937134
5316.046695	0.274270	0.264613	1432.469238
5316.047714	0.255560	0.264613	1692.885254
5316.048606	0.246570	0.264613	1912.825562
5316.049591	0.229442	0.264613	2138.826172
5316.050653	0.091377	0.264613	2235.868408
5316.051578	0.092223	0.264613	2321.174561
5316.052438	0.092300	0.264613	2400.552490
5316.053533	0.091414	0.264613	2500.650391
5316.054526	0.091772	0.264613	2591.780518
5316.055419	0.091787	0.264613	2673.746338
5316.056403	0.091007	0.264613	2763.297363
5316.057448	0.090908	0.264613	2858.296387
5316.058343	0.091714	0.264613	2940.380371
5316.059203	0.090743	0.264613	3018.419678
5317.079599	0.583118	0.253701	314.883545
5317.080663	0.283986	0.253701	617.044189
5317.081571	0.289687	0.253701	880.080444
5317.082439	0.286190	0.253701	1128.493530
5317.083571	0.272882	0.253701	1437.395996
5317.084538	0.254993	0.253701	1683.973877
5317.085409	0.246654	0.253701	1898.809570
5317.086434	0.237865	0.253701	2142.621094
5317.087476	0.091263	0.253701	2237.717529
5317.088368	0.092146	0.253701	2319.911865
5317.089279	0.091593	0.253701	2403.353027
5317.090367	0.091230	0.253701	2502.611816
5317.091310	0.091813	0.253701	2589.191162
5317.092171	0.091454	0.253701	2667.932861
5317.093217	0.090967	0.253701	2763.084229
5317.094240	0.091069	0.253701	2856.248047
5317.095117	0.091084	0.253701	2936.128662
5317.096083	0.090952	0.253701	3023.988525
5318.079958	0.657949	0.263316	298.708954
5318.080996	0.282385	0.263316	591.824829
5318.081898	0.289241	0.263316	852.719971
5318.082775	0.287139	0.263316	1104.540527
5318.083806	0.276661	0.263316	1389.778320
5318.084722	0.260211	0.263316	1628.131714
5318.085652	0.247236	0.263316	1858.061523
5318.086524	0.298824	0.263316	2118.636475
5318.087586	0.091267	0.263316	2215.562012
5318.088453	0.092303	0.263316	2295.589111
5318.089327	0.092996	0.263316	2376.867187
5318.090300	0.091827	0.263316	2466.215332
5318.091247	0.092706	0.263316	2554.008301
5318.092163	0.092347	0.263316	2638.598633
5318.093038	0.091611	0.263316	2718.758545
5318.094075	0.091432	0.263316	2813.573486
5318.094967	0.091952	0.263316	2895.594482
5318.095838	0.091637	0.263316	2975.410156
5319.115778	0.646403	0.247191	321.908478
5319.116842	0.283301	0.247191	623.340454
5319.117786	0.289629	0.247191	896.750122
5319.118655	0.286674	0.247191	1145.869507
5319.119724	0.274340	0.247191	1439.138550
5319.120745	0.255439	0.247191	1699.942139
5319.121633	0.246760	0.247191	1919.065186
5319.122631	0.220228	0.247191	2138.853027
5319.123689	0.091381	0.247191	2235.533691
5319.124595	0.092479	0.247191	2319.319824
5319.125454	0.091758	0.247191	2398.139893
5319.126547	0.091472	0.247191	2498.118896
5319.127539	0.091564	0.247191	2588.950195
5319.128408	0.091842	0.247191	2668.760986
5319.129401	0.091003	0.247191	2759.127441
5319.130461	0.091099	0.247191	2855.691895
5319.131353	0.091450	0.247191	2937.265381
5319.132214	0.091007	0.247191	3015.622559
5320.116261	0.553136	0.266229	285.418182
5320.117293	0.283378	0.266229	577.863953
5320.118175	0.289651	0.266229	833.336060
5320.119162	0.286428	0.266229	1116.040771
5320.120213	0.274241	0.266229	1404.267822
5320.121125	0.257384	0.266229	1639.002075
5320.121989	0.247031	0.266229	1852.437134
5320.123082	0.283462	0.266229	2162.260986
5320.124080	0.091263	0.266229	2253.341797
5320.124953	0.092351	0.266229	2333.964355
5320.125948	0.091542	0.266229	2425.048340
5320.126998	0.091739	0.266229	2521.374756
5320.127890	0.091930	0.266229	2603.376221
5320.128757	0.091794	0.266229	2682.961914
5320.129841	0.091091	0.266229	2781.704834
5320.130810	0.091245	0.266229	2870.121338
5320.131688	0.091285	0.266229	2950.270020
5320.132690	0.090809	0.266229	3041.260986
5321.153047	0.566038	0.249999	284.150879
5321.154062	0.282733	0.249999	571.125000
5321.154942	0.289482	0.249999	825.869507
5321.155953	0.286458	0.249999	1115.478027
5321.157005	0.274475	0.249999	1404.225830
5321.157881	0.257747	0.249999	1630.011841
5321.158774	0.247020	0.249999	1850.600952
5321.159877	0.274713	0.249999	2153.609619
5321.160838	0.091333	0.249999	2241.380615
5321.161704	0.092139	0.249999	2321.172607
5321.162721	0.091545	0.249999	2414.274414
5321.163750	0.091633	0.249999	2508.565186
5321.164640	0.092256	0.249999	2590.672852
5321.165567	0.091370	0.249999	2675.372559
5321.166643	0.091216	0.249999	2773.520752
5321.167588	0.091813	0.249999	2860.283691
5321.168451	0.091359	0.249999	2939.126221
5321.169507	0.090740	0.249999	3034.947510
5322.153548	0.498699	0.258534	277.276489
5322.154424	0.281528	0.258534	523.895264
5322.155298	0.289255	0.258534	776.704468
5322.156185	0.287351	0.258534	1031.584839
5322.157257	0.276478	0.258534	1327.969482
5322.158158	0.260984	0.258534	1563.115967
5322.159043	0.247639	0.258534	1782.276611
5322.160053	0.300289	0.258534	2085.568848
5322.160984	0.090762	0.258534	2170.068115
5322.161907	0.092227	0.258534	2255.193359
5322.162770	0.091864	0.258534	2334.471924
5322.163804	0.091945	0.258534	2429.542725
5322.164685	0.091714	0.258534	2510.342529
5322.165550	0.092087	0.258534	2589.998047
5322.166519	0.091384	0.258534	2678.549316
5322.167464	0.091655	0.258534	2765.163574
5322.168381	0.091670	0.258534	2849.224854
5322.169258	0.091520	0.258534	2929.487793
5323.188740	0.661633	0.253842	330.816650
5323.189805	0.283096	0.253842	632.313599
5323.190743	0.289592	0.253842	903.951172
5323.191606	0.286739	0.253842	1151.407349
5323.192684	0.274453	0.253842	1447.267822
5323.193701	0.255751	0.253842	1707.366333
5323.194578	0.246497	0.253842	1923.543823
5323.195566	0.273208	0.253842	2193.473389
5323.196631	0.091868	0.253842	2291.312500
5323.197533	0.092875	0.253842	2375.085449
5323.198390	0.092476	0.253842	2454.336914
5323.199431	0.091538	0.253842	2549.628174
5323.200438	0.091897	0.253842	2642.168457
5323.201330	0.092710	0.253842	2724.865723
5323.202314	0.091219	0.253842	2814.625732
5323.203360	0.091289	0.253842	2910.114014
5323.204260	0.091912	0.253842	2992.834473
5323.205125	0.091117	0.253842	3071.650635
5324.191164	0.644436	0.260371	271.952026
5324.192150	0.280060	0.260371	548.091003
5324.193211	0.288893	0.260371	854.606323
5324.194115	0.286029	0.260371	1113.176636
5324.194979	0.276207	0.260371	1351.819702
5324.196064	0.257728	0.260371	1631.454834
5324.197057	0.246515	0.260371	1876.244141
5324.197955	0.346077	0.260371	2187.020996
5324.198933	0.090938	0.260371	2275.957764
5324.200002	0.092534	0.260371	2374.876709
5324.200895	0.092849	0.260371	2457.791016
5324.201771	0.092402	0.260371	2538.735352
5324.202892	0.091355	0.260371	2641.144287
5324.203838	0.092007	0.260371	2728.182861
5324.204706	0.092146	0.260371	2808.165527
5324.205739	0.091084	0.260371	2902.255371
5324.206779	0.091256	0.260371	2997.161621
5324.207671	0.091824	0.260371	3079.068359
5325.224887	0.646150	0.254228	272.675232
5325.225988	0.283026	0.254228	584.286987
5325.226989	0.289651	0.254228	874.227539
5325.227886	0.286450	0.254228	1131.173340
5325.228891	0.274482	0.254228	1407.028198
5325.229954	0.255088	0.254228	1678.186646
5325.230847	0.246753	0.254228	1898.536987
5325.231770	0.288417	0.254228	2164.745605
5325.232856	0.091176	0.254228	2263.762207
5325.233796	0.092355	0.254228	2350.575684
5325.234670	0.091721	0.254228	2430.739990
5325.235712	0.091395	0.254228	2525.973877
5325.236732	0.091315	0.254228	2619.114746
5325.237627	0.091992	0.254228	2701.447754
5325.238570	0.091315	0.254228	2787.557617
5325.239623	0.090872	0.254228	2883.245361
5325.240542	0.091249	0.254228	2967.103027
5325.241401	0.091450	0.254228	3045.658691
5326.227408	0.648311	0.262627	289.794800
5326.228304	0.279913	0.262627	540.597168
5326.229168	0.288768	0.262627	790.092957
5326.230226	0.287238	0.262627	1093.990234
5326.231111	0.278375	0.262627	1340.352295
5326.231982	0.264228	0.262627	1570.495361
5326.233016	0.248317	0.262627	1827.254761
5326.233920	0.342719	0.262627	2137.072266
5326.234833	0.091608	0.262627	2220.709961
5326.235709	0.091963	0.262627	2301.269531
5326.236733	0.091857	0.262627	2395.330811
5326.237633	0.092267	0.262627	2478.371094
5326.238509	0.091696	0.262627	2558.696289
5326.239483	0.091329	0.262627	2647.651123
5326.240439	0.091549	0.262627	2735.172119
5326.241351	0.091549	0.262627	2818.664795
5326.242216	0.091538	0.262627	2897.845215
5326.243253	0.091080	0.262627	2992.295410
5327.261734	0.648395	0.249157	344.946014
5327.262800	0.283722	0.249157	647.393555
5327.263721	0.289534	0.249157	914.054077
5327.264587	0.286560	0.249157	1162.215088
5327.265653	0.273999	0.249157	1454.298096
5327.266669	0.255428	0.249157	1713.813477
5327.267557	0.246830	0.249157	1932.998291
5327.268546	0.240450	0.249157	2170.803711
5327.269596	0.091190	0.249157	2266.553467
5327.270500	0.092611	0.249157	2350.273926
5327.271362	0.091882	0.249157	2429.476562
5327.272473	0.091384	0.249157	2531.004395
5327.273443	0.092194	0.249157	2620.432129
5327.274327	0.091809	0.249157	2701.591309
5327.275331	0.091088	0.249157	2793.043213
5327.276390	0.091216	0.249157	2889.640869
5327.277274	0.091392	0.249157	2970.431152
5327.278139	0.091216	0.249157	3049.332764
5328.264633	0.646146	0.268150	273.319855
5328.265760	0.283147	0.268150	592.426453
5328.266736	0.289515	0.268150	874.993530
5328.267601	0.286494	0.268150	1122.810913
5328.268666	0.274208	0.268150	1414.842163
5328.269710	0.255348	0.268150	1681.425415
5328.270592	0.246786	0.268150	1899.090576
5328.271543	0.284158	0.268150	2169.324707
5328.272600	0.091245	0.268150	2265.770752
5328.273532	0.093234	0.268150	2352.664551
5328.274389	0.092164	0.268150	2431.649414
5328.275448	0.091443	0.268150	2528.487305
5328.276472	0.091619	0.268150	2622.304687
5328.277343	0.091886	0.268150	2702.337402
5328.278302	0.091047	0.268150	2789.651855
5328.279350	0.091205	0.268150	2885.234619
5328.280279	0.091945	0.268150	2970.651123
5328.281147	0.091263	0.268150	3049.867676
5329.296839	0.631619	0.260428	276.017365
5329.297707	0.279979	0.260428	519.039368
5329.298786	0.289563	0.260428	831.477844
5329.299794	0.286732	0.260428	1120.503906
5329.300691	0.276566	0.260428	1368.583740
5329.301684	0.259193	0.260428	1625.962524
5329.302725	0.247148	0.260428	1883.244019
5329.303642	0.307419	0.260428	2165.147705
5329.304500	0.091073	0.260428	2243.288330
5329.305603	0.091578	0.260428	2344.299316
5329.306582	0.091582	0.260428	2433.958008
5329.307461	0.092238	0.260428	2515.034912
5329.308475	0.091355	0.260428	2607.668945
5329.309529	0.091172	0.260428	2703.764160
5329.310405	0.091531	0.260428	2783.945068
5329.311286	0.091051	0.260428	2864.161133
5329.312368	0.090872	0.260428	2962.484131
5329.313334	0.091707	0.260428	3051.072754
5330.301977	0.566305	0.259280	285.417694
5330.302990	0.282902	0.259280	571.997070
5330.303881	0.289468	0.259280	829.912842
5330.304871	0.286227	0.259280	1113.277344
5330.305935	0.273713	0.259280	1404.508423
5330.306850	0.256838	0.259280	1639.515503
5330.307716	0.246738	0.259280	1853.190796
5330.308826	0.242098	0.259280	2121.919922
5330.309793	0.091373	0.259280	2210.277832
5330.310676	0.092443	0.259280	2291.904785
5330.311681	0.091439	0.259280	2383.801270
5330.312731	0.091469	0.259280	2479.843262
5330.313623	0.091919	0.259280	2561.834961
5330.314501	0.091560	0.259280	2642.224609
5330.315588	0.091084	0.259280	2741.232910
5330.316547	0.091494	0.259280	2828.975830
5330.317411	0.091659	0.259280	2908.169189
5330.318453	0.090703	0.259280	3002.681885
5331.333612	0.632285	0.253636	295.909454
5331.334497	0.280323	0.253636	543.995728
5331.335390	0.289189	0.253636	802.241943
5331.336423	0.287600	0.253636	1099.332886
5331.337341	0.278280	0.253636	1354.793945
5331.338209	0.263804	0.253636	1583.775635
5331.339274	0.247753	0.253636	1847.632324
5331.340167	0.336288	0.253636	2147.937256
5331.341030	0.091040	0.253636	2226.504883
5331.341891	0.091487	0.253636	2305.275146
5331.342948	0.092131	0.253636	2402.657959
5331.343841	0.092047	0.253636	2484.855957
5331.344716	0.091904	0.253636	2565.272217
5331.345704	0.091307	0.253636	2655.483887
5331.346644	0.091652	0.253636	2741.636475
5331.347568	0.091216	0.253636	2825.919922
5331.348432	0.091036	0.253636	2904.575439
5331.349474	0.091293	0.253636	2999.702393
5332.340183	0.590277	0.254365	258.541351
5332.341052	0.279939	0.254365	501.808319
5332.342106	0.289592	0.254365	807.038574
5332.343056	0.287362	0.254365	1080.032471
5332.343935	0.278306	0.254365	1324.663086
5332.344850	0.262445	0.254365	1564.800293
5332.345934	0.247423	0.254365	1833.006958
5332.346823	0.353921	0.254365	2147.642578
5332.347681	0.091516	0.254365	2226.163330
5332.348719	0.091681	0.254365	2321.328125
5332.349693	0.092021	0.254365	2410.957031
5332.350564	0.092750	0.254365	2491.742432
5332.351447	0.091633	0.254365	2572.654541
5332.352550	0.091285	0.254365	2673.342285
5332.353443	0.092245	0.254365	2755.717041
5332.354309	0.091780	0.254365	2835.198242
5332.355330	0.090945	0.254365	2928.052979
5332.356296	0.091553	0.254365	3016.492920
5333.369805	0.632263	0.259924	278.828064
5333.370668	0.279961	0.259924	520.434326
5333.371755	0.289600	0.259924	835.229126
5333.372765	0.286846	0.259924	1124.943359
5333.373638	0.276973	0.259924	1366.740479
5333.374642	0.259175	0.259924	1626.952026
5333.375712	0.246903	0.259924	1891.138306
5333.376600	0.317842	0.259924	2173.381836
5333.377463	0.091146	0.259924	2252.041016
5333.378577	0.091578	0.259924	2354.059326
5333.379547	0.091908	0.259924	2443.209961
5333.380413	0.092183	0.259924	2523.040039
5333.381446	0.091249	0.259924	2617.300049
5333.382500	0.091161	0.259924	2713.383545
5333.383391	0.091875	0.259924	2795.244141
5333.384320	0.091179	0.259924	2879.949707
5333.385385	0.090883	0.259924	2976.739746
5333.386336	0.091304	0.259924	3063.569580
5334.376395	0.631857	0.264746	276.121368
5334.377258	0.279130	0.264746	517.010254
5334.378337	0.288926	0.264746	828.761169
5334.379341	0.286249	0.264746	1116.154907
5334.380212	0.276573	0.264746	1357.050415
5334.381209	0.259215	0.264746	1615.487793
5334.382282	0.246610	0.264746	1880.100464
5334.383181	0.311631	0.264746	2160.256592
5334.384048	0.091132	0.264746	2239.267578
5334.385157	0.091593	0.264746	2340.844238
5334.386117	0.092281	0.264746	2429.434570
5334.386986	0.092289	0.264746	2509.633545
5334.388030	0.091256	0.264746	2604.904785
5334.389080	0.091937	0.264746	2701.438965
5334.389969	0.092201	0.264746	2783.405518
5334.390894	0.091099	0.264746	2867.671875
5334.391952	0.090853	0.264746	2963.794678
5334.392899	0.091476	0.264746	3050.422363
5335.406030	0.617505	0.255489	268.614624
5335.406903	0.279672	0.255489	512.767944
5335.407943	0.289336	0.255489	813.677307
5335.408985	0.286696	0.255489	1112.414062
5335.409879	0.276793	0.255489	1359.867187
5335.410823	0.260299	0.255489	1605.589478
5335.411905	0.247053	0.255489	1872.901123
5335.412846	0.314165	0.255489	2168.530518
5335.413717	0.091359	0.255489	2248.104004
5335.414769	0.091608	0.255489	2344.475342
5335.415788	0.091816	0.255489	2438.036133
5335.416680	0.092428	0.255489	2520.481934
5335.417640	0.091714	0.255489	2608.527344
5335.418676	0.091534	0.255489	2703.356934
5335.419591	0.091860	0.255489	2787.409180
5335.420451	0.091941	0.255489	2866.478271
5335.421519	0.090923	0.255489	2963.583984
5335.422528	0.091285	0.255489	3055.690918
5336.413626	0.644945	0.256391	274.101654
5336.414673	0.281602	0.256391	568.938477
5336.415697	0.289244	0.256391	865.124756
5336.416594	0.286238	0.256391	1121.880005
5336.417563	0.275314	0.256391	1388.658936
5336.418632	0.256219	0.256391	1662.557617
5336.419557	0.246504	0.256391	1890.573730
5336.420428	0.323262	0.256391	2172.134766
5336.421524	0.090934	0.256391	2271.798340
5336.422512	0.091992	0.256391	2362.686523
5336.423408	0.092465	0.256391	2445.534912
5336.424390	0.091370	0.256391	2535.259766
5336.425427	0.091428	0.256391	2630.070801
5336.426326	0.092014	0.256391	2712.791504
5336.427186	0.091066	0.256391	2791.107910
5336.428290	0.090989	0.256391	2891.559570
5336.429249	0.091681	0.256391	2979.481445
5336.430111	0.091681	0.256391	3058.510498
5337.441721	0.645678	0.259960	272.475922
5337.442689	0.280836	0.259960	544.325317
5337.443632	0.289047	0.259960	816.896240
5337.444518	0.287153	0.259960	1071.314087
5337.445548	0.276654	0.259960	1356.267822
5337.446450	0.261050	0.259960	1591.734741
5337.447328	0.247606	0.259960	1809.132935
5337.448312	0.253813	0.259960	2058.885498
5337.449271	0.090370	0.259960	2145.550293
5337.450190	0.091417	0.259960	2229.562744
5337.451052	0.091479	0.259960	2308.417969
5337.452081	0.091304	0.259960	2402.369385
5337.452960	0.091190	0.259960	2482.525635
5337.453829	0.091058	0.259960	2561.655273
5337.454730	0.090941	0.259960	2643.593262
5337.455764	0.090754	0.259960	2737.433350
5337.456661	0.090674	0.259960	2818.767822
5337.457539	0.090773	0.259960	2898.466309
5338.450873	0.647230	0.252710	273.131134
5338.451922	0.281418	0.252710	568.339111
5338.452816	0.289193	0.252710	826.877808
5338.453689	0.287263	0.252710	1077.658569
5338.454559	0.278192	0.252710	1319.685791
5338.455632	0.260914	0.252710	1599.646851
5338.456527	0.247471	0.252710	1821.133179
5338.457397	0.359469	0.252710	2133.871094
5338.458408	0.091018	0.252710	2225.890381
5338.459317	0.091868	0.252710	2309.398193
5338.460229	0.092281	0.252710	2393.558838
5338.461102	0.092062	0.252710	2473.928711
5338.462142	0.091659	0.252710	2569.253906
5338.463037	0.091685	0.252710	2651.311523
5338.463910	0.091608	0.252710	2731.284912
5338.464883	0.090868	0.252710	2819.699463
5338.465838	0.091897	0.252710	2907.461182
5338.466760	0.091289	0.252710	2991.629639
5339.478050	0.515632	0.260319	266.581909
5339.479002	0.282576	0.260319	535.593933
5339.479883	0.289655	0.260319	790.779602
5339.480812	0.287300	0.260319	1057.681152
5339.481889	0.275859	0.260319	1354.781738
5339.482783	0.259742	0.260319	1586.991455
5339.483647	0.247610	0.260319	1800.926392
5339.484705	0.310990	0.260319	2129.953857
5339.485655	0.091739	0.260319	2217.106445
5339.486517	0.092509	0.260319	2296.848877
5339.487550	0.091600	0.260319	2391.471924
5339.488589	0.092373	0.260319	2487.447510
5339.489474	0.092300	0.260319	2569.132812
5339.490416	0.091483	0.260319	2655.310059
5339.491482	0.091106	0.260319	2752.428955
5339.492424	0.091622	0.260319	2838.737061
5339.493281	0.091652	0.260319	2917.282471
5339.494319	0.090699	0.260319	3011.428467
5340.487704	0.538942	0.254446	275.399170
5340.488694	0.283118	0.254446	555.685669
5340.489590	0.289775	0.254446	815.324402
5340.490567	0.286879	0.254446	1095.604858
5340.491638	0.274303	0.254446	1389.383301
5340.492557	0.257300	0.254446	1625.841797
5340.493424	0.246954	0.254446	1839.951172
5340.494565	0.276335	0.254446	2155.250000
5340.495523	0.092036	0.254446	2243.420654
5340.496387	0.092216	0.254446	2323.094971
5340.497456	0.091545	0.254446	2420.957031
5340.498480	0.091718	0.254446	2514.875732
5340.499365	0.092468	0.254446	2596.710205
5340.500299	0.091512	0.254446	2682.182861
5340.501356	0.091315	0.254446	2778.702393
5340.502291	0.091641	0.254446	2864.386475
5340.503151	0.091681	0.254446	2943.231934
5340.504193	0.090795	0.254446	3037.840088
5341.514756	0.579166	0.265926	288.424774
5341.515662	0.281034	0.265926	543.041504
5341.516528	0.288922	0.265926	793.248047
5341.517621	0.286370	0.265926	1106.250000
5341.518624	0.274768	0.265926	1381.842285
5341.519519	0.258893	0.265926	1613.551392
5341.520502	0.246819	0.265926	1856.174316
5341.521572	0.282136	0.265926	2158.060059
5341.522465	0.091307	0.265926	2239.597656
5341.523328	0.091685	0.265926	2318.721436
5341.524460	0.091633	0.265926	2422.450439
5341.525433	0.092212	0.265926	2512.172607
5341.526298	0.092183	0.265926	2591.910645
5341.527371	0.091219	0.265926	2689.789062
5341.528393	0.091161	0.265926	2782.955566
5341.529278	0.091820	0.265926	2864.216309
5341.530216	0.091377	0.265926	2949.927979
5341.531284	0.090806	0.265926	3046.908447
5342.525378	0.645308	0.258385	277.482269
5342.526248	0.279514	0.258385	520.659607
5342.527282	0.289219	0.258385	819.711792
5342.528320	0.286732	0.258385	1117.339844
5342.529212	0.277002	0.258385	1364.425537
5342.530169	0.260475	0.258385	1613.699951
5342.531223	0.247064	0.258385	1874.105591
5342.532163	0.342623	0.258385	2196.171387
5342.533021	0.091421	0.258385	2274.610596
5342.534106	0.091743	0.258385	2374.151855
5342.535111	0.092450	0.258385	2467.063965
5342.535998	0.092454	0.258385	2549.070312
5342.536963	0.091432	0.258385	2637.302002
5342.538020	0.091714	0.258385	2734.243652
5342.538921	0.092040	0.258385	2817.171387
5342.539780	0.091743	0.258385	2895.978760
5342.540864	0.090853	0.258385	2994.463623
5342.541854	0.091531	0.258385	3085.079102
